wavelength (A),flux density (erg/cm2/s/A)
2500.4622,1.1143E-13
2501.8357,9.8766E-14
2503.2092,1.0329E-13
2504.5828,1.0570E-13
2505.9563,8.7539E-14
2507.3298,8.5572E-14
2508.7034,9.6890E-14
2510.0769,9.5143E-14
2511.4504,8.7830E-14
2512.824,8.2046E-14
2514.1975,7.1032E-14
2515.571,6.2938E-14
2516.9446,6.1022E-14
2518.3181,6.3444E-14
2519.6914,6.7804E-14
2521.0649,7.4021E-14
2522.4385,6.4349E-14
2523.812,5.9424E-14
2525.1855,6.5442E-14
2526.5588,6.6857E-14
2527.9324,6.2450E-14
2529.3059,6.5578E-14
2530.6792,8.2505E-14
2532.0527,9.0314E-14
2533.4263,9.0426E-14
2534.7996,8.9436E-14
2536.1731,8.8430E-14
2537.5464,8.9158E-14
2538.9199,9.1940E-14
2540.2935,9.3863E-14
2541.6667,9.5470E-14
2543.0403,1.0087E-13
2544.4136,1.0377E-13
2545.7869,9.9033E-14
2547.1604,9.7560E-14
2548.5337,9.4801E-14
2549.9072,1.0240E-13
2551.2805,1.3441E-13
2552.6538,1.4810E-13
2554.0273,1.5561E-13
2555.4006,1.5342E-13
2556.7739,1.5261E-13
2558.1472,1.6200E-13
2559.5208,1.6959E-13
2560.894,1.6376E-13
2562.2673,1.4002E-13
2563.6406,1.4278E-13
2565.0139,1.7266E-13
2566.3872,2.0341E-13
2567.7605,2.0970E-13
2569.1338,2.2761E-13
2570.5071,2.4113E-13
2571.8804,2.4141E-13
2573.2537,2.5066E-13
2574.627,2.1158E-13
2576.0002,1.6663E-13
2577.3735,1.8814E-13
2578.7468,2.3679E-13
2580.1201,2.7729E-13
2581.4932,2.7245E-13
2582.8665,2.4058E-13
2584.2397,2.0209E-13
2585.613,1.5829E-13
2586.9861,1.7835E-13
2588.3594,2.2916E-13
2589.7327,2.7236E-13
2591.1057,2.3897E-13
2592.479,2.0452E-13
2593.8521,1.8250E-13
2595.2253,1.8599E-13
2596.5986,1.6997E-13
2597.9717,1.2589E-13
2599.3447,1.0819E-13
2600.718,1.3971E-13
2602.0911,1.7997E-13
2603.4644,1.8484E-13
2604.8374,1.6255E-13
2606.2104,1.3198E-13
2607.5837,1.2870E-13
2608.9568,1.4584E-13
2610.3298,1.4655E-13
2611.7029,1.2085E-13
2613.0759,1.1895E-13
2614.4492,1.4456E-13
2615.8223,1.7748E-13
2617.1953,1.7142E-13
2618.5684,1.7255E-13
2619.9414,2.0071E-13
2621.3145,2.0237E-13
2622.6875,2.1193E-13
2624.0605,2.0474E-13
2625.4336,1.8919E-13
2626.8064,1.6893E-13
2628.1794,1.5615E-13
2629.5525,1.4706E-13
2630.9255,1.3829E-13
2632.2986,1.6313E-13
2633.6714,2.3223E-13
2635.0444,2.9719E-13
2636.4175,3.5489E-13
2637.7903,4.3183E-13
2639.1633,4.6489E-13
2640.5361,4.5735E-13
2641.9092,4.8999E-13
2643.282,5.3597E-13
2644.655,4.9309E-13
2646.0278,4.4987E-13
2647.4009,4.1213E-13
2648.7737,3.8133E-13
2650.1465,3.8634E-13
2651.5195,4.0711E-13
2652.8923,4.3519E-13
2654.2651,4.8475E-13
2655.6379,5.0722E-13
2657.011,5.1185E-13
2658.3838,4.9525E-13
2659.7566,4.8791E-13
2661.1294,4.5692E-13
2662.5022,4.2900E-13
2663.875,4.1813E-13
2665.2478,4.3064E-13
2666.6206,4.2393E-13
2667.9934,4.2553E-13
2669.3662,4.2905E-13
2670.7388,4.3758E-13
2672.1116,4.1754E-13
2673.4844,4.3952E-13
2674.8572,4.9316E-13
2676.2297,4.8679E-13
2677.6025,4.3877E-13
2678.9753,4.1132E-13
2680.3479,4.1987E-13
2681.7207,4.3956E-13
2683.0933,4.5397E-13
2684.4661,4.4753E-13
2685.8386,4.6134E-13
2687.2114,4.5499E-13
2688.584,4.2689E-13
2689.9565,3.9987E-13
2691.3293,4.1433E-13
2692.7019,4.4182E-13
2694.0745,4.3013E-13
2695.447,3.9219E-13
2696.8196,3.8626E-13
2698.1924,4.1308E-13
2699.5649,4.6647E-13
2700.9375,4.9802E-13
2702.3101,4.9237E-13
2703.6826,5.0916E-13
2705.0549,5.1602E-13
2706.4275,4.6995E-13
2707.8,4.4430E-13
2709.1726,4.4196E-13
2710.5452,4.3973E-13
2711.9177,4.4411E-13
2713.29,4.2591E-13
2714.6626,4.0074E-13
2716.0349,3.7285E-13
2717.4075,3.5375E-13
2718.78,2.7782E-13
2720.1523,2.3232E-13
2721.5249,2.5838E-13
2722.8972,2.9366E-13
2724.2695,3.0913E-13
2725.6421,3.2748E-13
2727.0144,3.5024E-13
2728.3867,3.9047E-13
2729.759,4.4853E-13
2731.1316,4.3482E-13
2732.5039,3.8982E-13
2733.8762,3.4324E-13
2735.2485,3.1242E-13
2736.6208,2.8126E-13
2737.9932,2.4722E-13
2739.3655,2.3969E-13
2740.7378,2.2584E-13
2742.1101,2.1435E-13
2743.4822,1.9684E-13
2744.8545,2.1150E-13
2746.2268,2.2582E-13
2747.5989,2.0920E-13
2748.9712,2.0364E-13
2750.3435,2.1183E-13
2751.7156,2.7989E-13
2753.0879,3.2693E-13
2754.46,2.8866E-13
2755.8323,2.5376E-13
2757.2043,2.8476E-13
2758.5764,3.9126E-13
2759.9487,4.3627E-13
2761.3208,4.0439E-13
2762.6929,3.7612E-13
2764.0649,4.1322E-13
2765.437,4.5105E-13
2766.8093,4.2862E-13
2768.1814,4.0150E-13
2769.5535,4.0880E-13
2770.9255,4.2912E-13
2772.2974,4.3473E-13
2773.6694,4.3950E-13
2775.0415,4.3375E-13
2776.4136,3.8961E-13
2777.7856,3.4263E-13
2779.1575,2.9693E-13
2780.5295,2.7484E-13
2781.9014,2.7488E-13
2783.2734,2.7040E-13
2784.6455,2.7366E-13
2786.0173,2.7051E-13
2787.3892,2.4640E-13
2788.7612,2.1072E-13
2790.1331,1.8255E-13
2791.5049,1.5703E-13
2792.877,1.3627E-13
2794.2488,1.2716E-13
2795.6206,1.4148E-13
2796.9924,1.2840E-13
2798.3643,1.1045E-13
2799.7361,1.1997E-13
2801.1079,1.2185E-13
2802.4797,1.3050E-13
2803.8516,1.3655E-13
2805.2231,1.3932E-13
2806.595,1.6697E-13
2807.9668,1.9959E-13
2809.3386,2.3217E-13
2810.7102,2.5752E-13
2812.082,2.7306E-13
2813.4536,3.0399E-13
2814.8254,3.6377E-13
2816.197,3.8617E-13
2817.5688,3.9601E-13
2818.9404,4.2471E-13
2820.312,4.5383E-13
2821.6836,4.6349E-13
2823.0554,4.8516E-13
2824.427,5.1581E-13
2825.7986,4.9406E-13
2827.1702,4.9942E-13
2828.5417,5.1754E-13
2829.9133,5.4941E-13
2831.2849,5.4823E-13
2832.6562,5.3719E-13
2834.0278,5.3155E-13
2835.3994,4.8150E-13
2836.771,4.8489E-13
2838.1423,5.4207E-13
2839.5139,5.2809E-13
2840.8853,4.8807E-13
2842.2568,4.8463E-13
2843.6282,4.2296E-13
2844.9998,4.1884E-13
2846.3711,3.6747E-13
2847.7424,3.0296E-13
2849.1138,2.3208E-13
2850.4854,1.7439E-13
2851.8567,1.2975E-13
2853.228,1.3531E-13
2854.5994,1.8237E-13
2855.9707,2.4212E-13
2857.342,3.0524E-13
2858.7131,3.7678E-13
2860.0845,4.6484E-13
2861.4558,5.0073E-13
2862.8271,5.1655E-13
2864.1982,5.6036E-13
2865.5696,5.7089E-13
2866.9407,5.5372E-13
2868.312,5.2024E-13
2869.6831,5.4618E-13
2871.0544,6.3569E-13
2872.4255,6.7007E-13
2873.7966,6.1551E-13
2875.168,5.9175E-13
2876.5391,5.5689E-13
2877.9102,5.1817E-13
2879.2812,4.5001E-13
2880.6523,3.4250E-13
2882.0234,2.9333E-13
2883.3945,3.9875E-13
2884.7654,5.5654E-13
2886.1365,6.4391E-13
2887.5076,6.5170E-13
2888.8787,6.5638E-13
2890.2495,6.5897E-13
2891.6206,6.6484E-13
2892.9915,6.7115E-13
2894.3625,7.0714E-13
2895.7334,7.9850E-13
2897.1042,8.4526E-13
2898.4753,8.6455E-13
2899.8462,9.5518E-13
2901.217,9.7559E-13
2902.5879,9.6322E-13
2903.9587,1.0298E-12
2905.3296,1.0105E-12
2906.7004,9.6941E-13
2908.0713,9.2692E-13
2909.4421,9.0654E-13
2910.813,9.1628E-13
2912.1836,9.6282E-13
2913.5544,9.9619E-13
2914.9253,9.2256E-13
2916.2959,8.9849E-13
2917.6667,8.8488E-13
2919.0374,8.7992E-13
2920.408,9.0783E-13
2921.7788,9.0880E-13
2923.1494,8.3821E-13
2924.52,7.8293E-13
2925.8906,7.5382E-13
2927.2612,7.4947E-13
2928.6318,7.2972E-13
2930.0024,8.5470E-13
2931.373,9.8136E-13
2932.7437,9.8716E-13
2934.1143,9.6559E-13
2935.4846,8.8662E-13
2936.8552,7.2193E-13
2938.2258,7.0464E-13
2939.5962,7.7036E-13
2940.9668,7.9461E-13
2942.3372,8.4292E-13
2943.7075,8.7273E-13
2945.0781,8.6287E-13
2946.4485,8.1911E-13
2947.8188,6.8041E-13
2949.1892,6.7187E-13
2950.5596,8.1101E-13
2951.9299,9.3374E-13
2953.3003,8.6999E-13
2954.6707,8.3877E-13
2956.041,8.9257E-13
2957.4114,8.7641E-13
2958.7815,9.4679E-13
2960.1519,9.2927E-13
2961.522,9.4231E-13
2962.8923,9.4839E-13
2964.2625,8.5568E-13
2965.6328,6.4426E-13
2967.0029,5.8486E-13
2968.373,6.5199E-13
2969.7432,6.3498E-13
2971.1135,6.6855E-13
2972.4836,6.9569E-13
2973.8538,7.5225E-13
2975.2239,9.1567E-13
2976.5938,1.0095E-12
2977.9639,1.0616E-12
2979.334,9.5392E-13
2980.7041,7.9510E-13
2982.074,6.6245E-13
2983.4441,5.7522E-13
2984.814,5.3579E-13
2986.1841,6.0301E-13
2987.554,7.0043E-13
2988.9238,8.3834E-13
2990.2937,9.6428E-13
2991.6638,9.4288E-13
2993.0337,8.3040E-13
2994.4036,7.1943E-13
2995.7734,7.7870E-13
2997.1433,8.8998E-13
2998.5129,8.0872E-13
2999.8828,6.1132E-13
3001.2527,5.2229E-13
3002.6223,5.4456E-13
3003.9922,6.5963E-13
3005.3621,7.9097E-13
3006.7317,7.3198E-13
3008.1013,6.4422E-13
3009.4712,7.2119E-13
3010.8408,8.3406E-13
3012.2104,8.4024E-13
3013.5801,8.6410E-13
3014.9497,8.5282E-13
3016.3193,8.0611E-13
3017.689,6.8660E-13
3019.0586,5.6008E-13
3020.4282,4.7619E-13
3021.7976,5.7252E-13
3023.1672,7.7900E-13
3024.5366,7.9649E-13
3025.9062,8.0138E-13
3027.2756,9.6698E-13
3028.6453,1.0698E-12
3030.0146,1.0132E-12
3031.384,1.0158E-12
3032.7534,1.1107E-12
3034.1228,1.1408E-12
3035.4922,1.1027E-12
3036.8616,9.4911E-13
3038.231,8.3929E-13
3039.6003,8.9592E-13
3040.9697,8.9764E-13
3042.3389,8.8902E-13
3043.7083,1.0119E-12
3045.0776,1.0723E-12
3046.4468,9.9578E-13
3047.8159,9.6339E-13
3049.1853,9.5610E-13
3050.5544,1.0726E-12
3051.9236,1.1553E-12
3053.2927,1.1225E-12
3054.6619,9.9235E-13
3056.031,9.2544E-13
3057.4001,7.5860E-13
3058.7693,6.8177E-13
3060.1384,8.3453E-13
3067.3921,9.1798E-13
3070.1382,1.0156E-12
3072.8843,1.0095E-12
3075.6304,1.0069E-12
3078.3765,1.0229E-12
3081.1226,9.8480E-13
3083.8689,1.0234E-12
3086.615,9.8283E-13
3089.3613,8.5456E-13
3092.1074,8.0063E-13
3094.8538,8.0333E-13
3097.6001,7.7404E-13
3100.3462,7.7035E-13
3103.0925,9.8953E-13
3105.8389,1.1732E-12
3108.5852,1.2383E-12
3111.3315,1.2304E-12
3114.0779,1.1845E-12
3116.8245,1.0689E-12
3119.5708,1.0049E-12
3122.3171,1.0288E-12
3125.0637,1.0520E-12
3127.8101,1.0829E-12
3130.5566,1.0900E-12
3133.303,1.0945E-12
3136.0496,1.1357E-12
3138.7961,1.1060E-12
3141.5427,1.0573E-12
3144.2893,9.1916E-13
3147.0359,1.0345E-12
3149.7825,1.1312E-12
3152.5291,1.0817E-12
3155.2756,9.9135E-13
3158.0222,9.1257E-13
3160.7688,8.6551E-13
3163.5156,1.0016E-12
3166.2622,1.0827E-12
3169.009,1.1841E-12
3171.7556,1.2639E-12
3174.5024,1.2599E-12
3177.2493,1.1294E-12
3179.9961,9.4606E-13
3182.7427,9.6626E-13
3185.4895,1.0706E-12
3188.2363,1.1517E-12
3190.9832,1.0666E-12
3193.73,1.0201E-12
3196.4771,1.1292E-12
3199.2239,1.2361E-12
3201.9707,1.2856E-12
3204.7178,1.3376E-12
3207.4646,1.2278E-12
3210.2114,1.0481E-12
3212.9585,9.8851E-13
3215.7056,1.0864E-12
3218.4524,1.1985E-12
3221.1995,1.1690E-12
3223.9465,1.0887E-12
3226.6936,9.9337E-13
3229.4407,9.7704E-13
3232.1877,1.0467E-12
3234.9348,1.0398E-12
3237.6819,1.1086E-12
3240.429,1.1932E-12
3243.176,1.2299E-12
3245.9231,1.2588E-12
3248.6704,1.2025E-12
3251.4175,1.2595E-12
3254.1646,1.3884E-12
3256.9119,1.5116E-12
3259.6592,1.5700E-12
3262.4062,1.5214E-12
3265.1536,1.4888E-12
3267.9009,1.5540E-12
3270.6479,1.5016E-12
3273.3953,1.5059E-12
3276.1426,1.4893E-12
3278.8899,1.4545E-12
3281.6372,1.4476E-12
3284.3845,1.4189E-12
3287.1318,1.3855E-12
3289.8794,1.5477E-12
3292.6267,1.6688E-12
3295.374,1.7108E-12
3298.1213,1.7067E-12
3300.8689,1.6897E-12
3303.6162,1.5445E-12
3306.3638,1.4374E-12
3309.1111,1.5273E-12
3311.8586,1.5408E-12
3314.6062,1.4983E-12
3317.3535,1.5487E-12
3320.1011,1.5107E-12
3322.8486,1.4334E-12
3325.5962,1.4913E-12
3328.3438,1.4792E-12
3331.0913,1.4656E-12
3333.8389,1.4414E-12
3336.5864,1.3510E-12
3339.334,1.4304E-12
3342.0815,1.4777E-12
3344.8291,1.5285E-12
3347.5769,1.4948E-12
3350.3245,1.4425E-12
3353.072,1.5659E-12
3355.8198,1.5589E-12
3358.5674,1.3071E-12
3361.3152,1.1545E-12
3364.0627,1.3802E-12
3366.8105,1.3665E-12
3369.5583,1.2195E-12
3372.3059,1.2335E-12
3375.0537,1.4397E-12
3377.8015,1.4764E-12
3380.5493,1.3313E-12
3383.2971,1.4156E-12
3386.0449,1.4526E-12
3388.7927,1.4827E-12
3391.5405,1.4355E-12
3394.2883,1.4315E-12
3397.0361,1.6006E-12
3399.7839,1.7124E-12
3402.5317,1.6440E-12
3405.2795,1.5473E-12
3408.0276,1.4842E-12
3410.7754,1.4882E-12
3413.5232,1.3901E-12
3416.2712,1.4296E-12
3419.019,1.5728E-12
3421.7671,1.5790E-12
3424.5149,1.5215E-12
3427.2629,1.5620E-12
3430.011,1.6681E-12
3432.7588,1.5890E-12
3435.5068,1.5526E-12
3438.2549,1.3812E-12
3441.0029,1.1220E-12
3443.7507,1.1250E-12
3446.4988,1.2952E-12
3449.2468,1.4491E-12
3451.9949,1.4988E-12
3454.7429,1.5309E-12
3457.491,1.4798E-12
3460.239,1.3683E-12
3462.9871,1.4270E-12
3465.7354,1.4941E-12
3468.4834,1.5534E-12
3471.2314,1.5440E-12
3473.9795,1.3736E-12
3476.7278,1.2982E-12
3479.4758,1.4685E-12
3482.2239,1.5166E-12
3484.9722,1.4825E-12
3487.7202,1.5071E-12
3490.4685,1.4090E-12
3493.2166,1.3458E-12
3495.9648,1.3904E-12
3498.7129,1.5014E-12
3501.4612,1.6757E-12
3504.2095,1.7103E-12
3506.9575,1.6660E-12
3509.7058,1.5829E-12
3512.4541,1.4866E-12
3515.2024,1.4726E-12
3517.9504,1.6329E-12
3520.6987,1.5526E-12
3523.447,1.3680E-12
3526.1953,1.3869E-12
3528.9436,1.5004E-12
3531.6919,1.6055E-12
3534.4402,1.6622E-12
3537.1885,1.7158E-12
3539.9368,1.7467E-12
3542.6851,1.7362E-12
3545.4336,1.7989E-12
3548.1819,1.7843E-12
3550.9302,1.7833E-12
3553.6785,1.6784E-12
3556.4268,1.6276E-12
3559.1753,1.6222E-12
3561.9236,1.6779E-12
3564.6719,1.5301E-12
3567.4204,1.3094E-12
3570.1687,1.2155E-12
3572.9172,1.3109E-12
3575.6655,1.4187E-12
3578.4141,1.3641E-12
3581.1624,1.1403E-12
3583.9109,1.1045E-12
3586.6592,1.0997E-12
3589.4077,1.3033E-12
3592.156,1.5651E-12
3594.9045,1.6441E-12
3597.6531,1.7594E-12
3600.4014,1.7661E-12
3603.1499,1.6188E-12
3605.8984,1.4659E-12
3608.647,1.3442E-12
3611.3953,1.3762E-12
3614.1438,1.4656E-12
3616.8923,1.4804E-12
3619.6409,1.3004E-12
3622.3894,1.4857E-12
3625.1379,1.6596E-12
3627.8865,1.7973E-12
3630.635,1.5708E-12
3633.3835,1.3954E-12
3636.1321,1.5217E-12
3638.8806,1.6828E-12
3641.6292,1.7449E-12
3644.3777,1.6074E-12
3647.1262,1.4744E-12
3649.8748,1.4904E-12
3652.6233,1.6919E-12
3655.3718,1.8654E-12
3658.1204,1.9430E-12
3660.8691,1.9833E-12
3663.6177,1.9264E-12
3666.3662,1.8727E-12
3669.1147,1.8426E-12
3671.8635,1.8590E-12
3674.6121,1.8698E-12
3677.3606,1.8270E-12
3680.1091,1.6729E-12
3682.8579,1.7082E-12
3685.6064,1.6972E-12
3688.355,1.6456E-12
3691.1038,1.8357E-12
3693.8523,1.9347E-12
3696.6011,1.9377E-12
3699.3496,2.0053E-12
3702.0984,1.9753E-12
3704.8469,1.7173E-12
3707.5955,1.5550E-12
3710.3442,1.6593E-12
3713.0928,1.9207E-12
3715.8416,2.0233E-12
3718.5901,1.7586E-12
3721.3389,1.3845E-12
3724.0876,1.5187E-12
3726.8362,1.7497E-12
3729.585,1.7106E-12
3732.3335,1.5296E-12
3735.0823,1.1902E-12
3737.8311,1.2390E-12
3740.5796,1.5543E-12
3743.3284,1.5746E-12
3746.0769,1.2997E-12
3748.8257,1.1891E-12
3751.5745,1.4309E-12
3754.3232,1.7392E-12
3757.0718,1.8368E-12
3759.8206,1.5571E-12
3762.5693,1.6583E-12
3765.3179,1.6486E-12
3768.0667,1.6746E-12
3770.8154,1.7760E-12
3773.5642,1.9550E-12
3776.3127,2.0635E-12
3779.0615,2.1386E-12
3781.8103,2.2302E-12
3784.5591,2.2009E-12
3787.3076,1.9517E-12
3790.0564,1.8133E-12
3792.8052,1.7953E-12
3795.554,1.6669E-12
3798.3027,1.5890E-12
3801.0515,1.7390E-12
3803.8,2.0237E-12
3806.5488,2.0443E-12
3809.2976,2.0302E-12
3812.0464,2.0137E-12
3814.7952,1.6985E-12
3817.5439,1.5507E-12
3820.2925,1.4767E-12
3823.0413,1.4169E-12
3825.79,1.2409E-12
3828.5388,1.1479E-12
3831.2876,1.1594E-12
3834.0364,1.0813E-12
3836.7852,1.1239E-12
3839.5337,1.1318E-12
3842.2825,1.3779E-12
3845.0312,1.7192E-12
3847.78,1.8435E-12
3850.5288,1.8328E-12
3853.2776,1.8245E-12
3856.0264,1.7005E-12
3858.7751,1.5598E-12
3861.5239,1.5128E-12
3864.2725,1.7272E-12
3867.0212,1.8488E-12
3869.77,1.7559E-12
3872.5188,1.5949E-12
3875.2676,1.7099E-12
3878.0164,1.6887E-12
3880.7651,1.6302E-12
3883.5139,1.6072E-12
3886.2625,1.5283E-12
3889.0112,1.4568E-12
3891.76,1.6645E-12
3894.5088,1.7997E-12
3897.2576,1.8827E-12
3900.0063,1.8757E-12
3902.7551,1.8253E-12
3905.5037,1.7414E-12
3908.2524,1.8697E-12
3911.0012,2.0519E-12
3913.75,2.0875E-12
3916.4988,2.0171E-12
3919.2476,1.8989E-12
3921.9961,1.7058E-12
3924.7449,1.6258E-12
3927.4937,1.3936E-12
3930.2424,1.0106E-12
3932.9912,7.3543E-13
3935.7397,7.1771E-13
3938.4885,1.0039E-12
3941.2373,1.3290E-12
3943.9861,1.4849E-12
3946.7349,1.7098E-12
3949.4834,1.8534E-12
3952.2322,1.9717E-12
3954.981,1.9746E-12
3957.7295,1.9063E-12
3960.4783,1.7945E-12
3963.2271,1.4145E-12
3965.9758,1.1051E-12
3968.7244,8.3257E-13
3971.4731,9.5168E-13
3974.2219,1.3199E-12
3976.9705,1.7193E-12
3979.7192,2.0471E-12
3982.468,2.1667E-12
3985.2166,2.2350E-12
3987.9653,2.3027E-12
3990.7139,2.3938E-12
3993.4626,2.4674E-12
3996.2112,2.4481E-12
3998.96,2.4455E-12
4001.7087,2.5269E-12
4004.4573,2.4831E-12
4007.2061,2.3599E-12
4009.9546,2.5248E-12
4012.7034,2.6035E-12
4015.4519,2.6048E-12
4018.2004,2.5902E-12
4020.9492,2.6316E-12
4023.6978,2.6384E-12
4026.4465,2.6495E-12
4029.1951,2.6184E-12
4031.9438,2.4187E-12
4034.6924,2.3934E-12
4037.4409,2.5914E-12
4040.1897,2.6783E-12
4042.9382,2.5619E-12
4045.6868,2.2681E-12
4048.4353,2.3745E-12
4051.1841,2.5603E-12
4053.9326,2.5571E-12
4056.6812,2.4562E-12
4059.4297,2.4416E-12
4062.1782,2.4364E-12
4064.927,2.2625E-12
4067.6755,2.3693E-12
4070.4241,2.4703E-12
4073.1726,2.3757E-12
4075.9211,2.4208E-12
4078.6697,2.3390E-12
4081.4182,2.5150E-12
4084.1667,2.5947E-12
4086.9153,2.6355E-12
4089.6638,2.7637E-12
4092.4124,2.7310E-12
4095.1609,2.6199E-12
4097.9092,2.4586E-12
4100.6577,2.2503E-12
4103.4062,2.1289E-12
4106.1548,2.3919E-12
4108.9033,2.5557E-12
4111.6519,2.6263E-12
4114.4004,2.7114E-12
4117.1489,2.7821E-12
4119.8975,2.7073E-12
4122.6455,2.7024E-12
4125.394,2.7058E-12
4128.1426,2.6377E-12
4130.8911,2.5862E-12
4133.6396,2.5707E-12
4136.3877,2.6710E-12
4139.1362,2.7785E-12
4141.8848,2.7397E-12
4144.6333,2.5311E-12
4147.3813,2.6190E-12
4150.1299,2.6898E-12
4152.8784,2.6634E-12
4155.627,2.5567E-12
4158.375,2.6166E-12
4161.1235,2.7182E-12
4163.8721,2.8006E-12
4166.6201,2.7764E-12
4169.3687,2.6823E-12
4172.1167,2.5873E-12
4174.8652,2.4617E-12
4177.6138,2.5395E-12
4180.3618,2.6060E-12
4183.1104,2.5785E-12
4185.8584,2.5513E-12
4188.6069,2.4841E-12
4191.355,2.6136E-12
4194.1035,2.6876E-12
4196.8516,2.5656E-12
4199.5996,2.4216E-12
4202.3481,2.4412E-12
4205.0962,2.5845E-12
4207.8447,2.7140E-12
4210.5928,2.7456E-12
4213.3408,2.7487E-12
4216.0894,2.6630E-12
4218.8374,2.6396E-12
4221.5854,2.6483E-12
4224.334,2.4751E-12
4227.082,2.1646E-12
4229.8301,2.3455E-12
4232.5781,2.5870E-12
4235.3267,2.5420E-12
4238.0747,2.4486E-12
4240.8228,2.5090E-12
4243.5708,2.6037E-12
4246.3188,2.6093E-12
4249.0669,2.4691E-12
4251.8154,2.4153E-12
4254.5635,2.5147E-12
4257.3115,2.5174E-12
4260.0596,2.4538E-12
4262.8076,2.4944E-12
4265.5557,2.6192E-12
4268.3037,2.5839E-12
4271.0518,2.3453E-12
4273.7998,2.1952E-12
4276.5479,2.3241E-12
4279.2959,2.5269E-12
4282.0435,2.4520E-12
4284.7915,2.4017E-12
4287.5396,2.3288E-12
4290.2876,2.2166E-12
4293.0356,2.2541E-12
4295.7837,2.2569E-12
4298.5312,2.0672E-12
4301.2793,1.8256E-12
4304.0273,1.8099E-12
4306.7754,1.8115E-12
4309.5229,1.7305E-12
4312.271,1.8851E-12
4315.019,2.2454E-12
4317.7666,2.6005E-12
4320.5146,2.7444E-12
4323.2622,2.5359E-12
4326.0103,2.2151E-12
4328.7578,2.4216E-12
4331.5059,2.6668E-12
4334.2534,2.6981E-12
4337.0015,2.5498E-12
4339.749,2.2626E-12
4342.4971,2.0952E-12
4345.2446,2.4151E-12
4347.9922,2.6094E-12
4350.7402,2.6622E-12
4353.4878,2.4813E-12
4356.2354,2.6141E-12
4358.9834,2.6997E-12
4361.731,2.7641E-12
4364.4785,2.8172E-12
4367.2261,2.8030E-12
4369.9741,2.7097E-12
4372.7217,2.6530E-12
4375.4692,2.5550E-12
4378.2168,2.6124E-12
4380.9644,2.5943E-12
4383.7119,2.3091E-12
4386.4595,2.2564E-12
4389.207,2.4721E-12
4391.9546,2.5607E-12
4394.7021,2.6392E-12
4397.4497,2.6733E-12
4400.1973,2.6797E-12
4402.9448,2.5972E-12
4405.6924,2.4734E-12
4408.4395,2.5977E-12
4411.187,2.7278E-12
4413.9346,2.8394E-12
4416.6821,2.7066E-12
4419.4292,2.8195E-12
4422.1768,2.8970E-12
4424.9243,2.8232E-12
4427.6714,2.8367E-12
4430.4189,2.8629E-12
4433.1665,2.8305E-12
4435.9136,2.7492E-12
4438.6611,2.8595E-12
4441.4082,2.8847E-12
4444.1558,2.8706E-12
4446.9028,2.9148E-12
4449.6504,2.8913E-12
4452.3975,2.8287E-12
4455.1445,2.7252E-12
4457.8921,2.6320E-12
4460.6392,2.6587E-12
4463.3862,2.7076E-12
4466.1333,2.8229E-12
4468.8809,2.8380E-12
4471.6279,2.8562E-12
4474.375,2.9689E-12
4477.1221,3.0168E-12
4479.8691,2.9803E-12
4482.6162,2.8354E-12
4485.3633,2.9571E-12
4488.1104,2.9917E-12
4490.8574,2.9062E-12
4493.6045,2.9605E-12
4496.3516,2.9261E-12
4499.0986,3.0006E-12
4501.8457,3.0350E-12
4504.5928,3.1255E-12
4507.3394,3.1570E-12
4510.0864,3.1450E-12
4512.8335,3.1149E-12
4515.5806,3.0373E-12
4518.3271,3.0359E-12
4521.0742,3.0570E-12
4523.8213,2.9837E-12
4526.5679,2.8692E-12
4529.3149,2.7458E-12
4532.0615,2.7661E-12
4534.8086,2.8050E-12
4537.5552,2.8951E-12
4540.3018,2.9835E-12
4543.0488,2.9966E-12
4545.7954,2.9416E-12
4548.542,2.8739E-12
4551.2891,2.8480E-12
4554.0356,2.8698E-12
4556.7822,2.9076E-12
4559.5288,3.0284E-12
4562.2759,3.0665E-12
4565.0225,3.0061E-12
4567.769,2.9972E-12
4570.5156,3.0424E-12
4573.2622,3.0163E-12
4576.0088,3.0764E-12
4578.7554,3.0533E-12
4581.502,2.9241E-12
4584.248,2.8778E-12
4586.9946,2.9281E-12
4589.7412,2.9875E-12
4592.4878,2.9661E-12
4595.2344,2.9495E-12
4597.9805,2.9409E-12
4600.7271,2.9525E-12
4603.4736,2.9725E-12
4606.2197,3.0068E-12
4608.9663,3.0379E-12
4611.7124,3.0546E-12
4614.459,3.0432E-12
4617.2051,3.0532E-12
4619.9517,3.0297E-12
4622.6978,3.0640E-12
4625.4438,3.0703E-12
4628.1904,3.0734E-12
4630.9365,3.0798E-12
4633.6826,3.0580E-12
4636.4287,3.0286E-12
4639.1748,2.9812E-12
4641.9214,3.0079E-12
4644.6675,2.9838E-12
4647.4136,2.9025E-12
4650.1597,2.9257E-12
4652.9058,2.9541E-12
4655.6519,2.9688E-12
4658.3975,3.0191E-12
4661.1436,3.0501E-12
4663.8896,2.9871E-12
4666.6357,2.8985E-12
4669.3818,2.8056E-12
4672.1274,2.9363E-12
4674.8735,2.9767E-12
4677.6196,3.0077E-12
4680.3652,2.9737E-12
4683.1113,2.9554E-12
4685.8569,2.9616E-12
4688.603,2.9868E-12
4691.3486,2.9885E-12
4694.0942,2.9823E-12
4696.8403,3.0171E-12
4699.5859,2.9328E-12
4702.3315,2.8528E-12
4705.0776,2.8291E-12
4707.8232,2.8543E-12
4710.5688,2.8909E-12
4713.3145,2.9292E-12
4716.0601,2.9606E-12
4718.8057,3.0410E-12
4721.5513,3.0919E-12
4724.2969,3.0718E-12
4727.0425,3.0228E-12
4729.7881,2.9705E-12
4732.5332,2.9301E-12
4735.2788,2.9741E-12
4738.0244,2.9673E-12
4740.77,2.9999E-12
4743.5151,3.0116E-12
4746.2607,3.0426E-12
4749.0059,3.0692E-12
4751.7515,3.0488E-12
4754.4966,2.9844E-12
4757.2422,2.9514E-12
4759.9873,2.9901E-12
4762.7329,2.9383E-12
4765.478,2.9245E-12
4768.2231,2.9341E-12
4770.9683,3.0042E-12
4773.7134,3.0308E-12
4776.459,3.0617E-12
4779.2041,3.0785E-12
4781.9492,3.0483E-12
4784.6943,2.9973E-12
4787.4395,2.9538E-12
4790.1841,2.9443E-12
4792.9292,2.9961E-12
4795.6743,3.0386E-12
4798.4194,3.0417E-12
4801.1646,3.0038E-12
4803.9092,2.9993E-12
4806.6543,2.9862E-12
4809.3994,2.9713E-12
4812.144,3.0176E-12
4814.8892,3.0245E-12
4817.6338,3.0468E-12
4820.3784,3.0241E-12
4823.1235,3.0033E-12
4825.8682,2.9807E-12
4828.6128,2.9821E-12
4831.3579,2.9675E-12
4834.1025,2.9614E-12
4836.8472,2.9580E-12
4839.5918,2.9342E-12
4842.3364,2.9118E-12
4845.0811,2.9325E-12
4847.8257,2.9328E-12
4850.5703,2.9106E-12
4853.3149,2.8595E-12
4856.0591,2.7240E-12
4858.8037,2.5215E-12
4861.5483,2.3618E-12
4864.293,2.3083E-12
4867.0371,2.5543E-12
4869.7817,2.6683E-12
4872.5259,2.5983E-12
4875.2705,2.6838E-12
4878.0146,2.7846E-12
4880.7588,2.8653E-12
4883.5034,2.8727E-12
4886.2476,2.7901E-12
4888.9917,2.7453E-12
4891.7358,2.7114E-12
4894.4805,2.8364E-12
4897.2246,2.9203E-12
4899.9688,2.9583E-12
4902.7129,2.9400E-12
4905.4565,2.9017E-12
4908.2007,2.9166E-12
4910.9448,2.8584E-12
4913.689,2.8574E-12
4916.4331,2.8733E-12
4919.1768,2.7256E-12
4921.9209,2.6137E-12
4924.6646,2.7256E-12
4927.4087,2.8317E-12
4930.1523,2.9246E-12
4932.8965,2.8873E-12
4935.6401,2.8233E-12
4938.3843,2.8041E-12
4941.1279,2.8141E-12
4943.8716,2.9126E-12
4946.6152,2.9675E-12
4949.3589,2.9847E-12
4952.1025,2.9618E-12
4954.8462,2.9044E-12
4957.5898,2.8014E-12
4960.3335,2.7958E-12
4963.0771,2.9279E-12
4965.8208,2.9404E-12
4968.5645,2.8920E-12
4971.3076,2.9020E-12
4974.0513,2.9398E-12
4976.7944,2.9492E-12
4979.5381,2.8918E-12
4982.2812,2.7857E-12
4985.0249,2.7036E-12
4987.7681,2.7648E-12
4990.5112,2.8545E-12
4993.2549,2.8794E-12
4995.998,2.8971E-12
4998.7412,2.8786E-12
5001.4844,2.8054E-12
5004.2275,2.7751E-12
5006.9707,2.7115E-12
5009.7139,2.7538E-12
5012.457,2.7774E-12
5015.2002,2.7137E-12
5017.9434,2.7207E-12
5020.686,2.7507E-12
5023.4292,2.7958E-12
5026.1719,2.8078E-12
5028.915,2.8116E-12
5031.6577,2.8259E-12
5034.4009,2.9064E-12
5037.1436,2.8308E-12
5039.8867,2.7513E-12
5042.6294,2.6724E-12
5045.3721,2.8098E-12
5048.1147,2.8907E-12
5050.8574,2.8413E-12
5053.6001,2.8508E-12
5056.3428,2.9298E-12
5059.0854,2.9564E-12
5061.8281,2.9548E-12
5064.5708,2.9098E-12
5067.3135,2.8493E-12
5070.0557,2.8434E-12
5072.7983,2.8392E-12
5075.5405,2.8359E-12
5078.2832,2.8154E-12
5081.0254,2.7281E-12
5083.7681,2.7495E-12
5086.5103,2.8456E-12
5089.2524,2.8901E-12
5091.9951,2.9203E-12
5094.7373,2.9271E-12
5097.4795,2.8728E-12
5100.2217,2.8435E-12
5102.9639,2.8419E-12
5105.7061,2.8524E-12
5108.4482,2.8065E-12
5111.1904,2.7657E-12
5113.9321,2.8510E-12
5116.6743,2.9149E-12
5119.4165,2.9362E-12
5122.1582,2.8714E-12
5124.9004,2.7927E-12
5127.6421,2.7486E-12
5130.3843,2.7664E-12
5133.126,2.7800E-12
5135.8677,2.7817E-12
5138.6094,2.7229E-12
5141.3511,2.6677E-12
5144.0933,2.6914E-12
5146.835,2.7341E-12
5149.5767,2.7509E-12
5152.3179,2.7519E-12
5155.0596,2.7668E-12
5157.8013,2.7950E-12
5160.543,2.7947E-12
5163.2842,2.7312E-12
5166.0259,2.5698E-12
5168.7671,2.2648E-12
5171.5088,2.2914E-12
5174.25,2.2371E-12
5176.9917,2.5481E-12
5179.7329,2.6529E-12
5182.4741,2.5234E-12
5185.2153,2.4264E-12
5187.9565,2.4930E-12
5190.6978,2.6242E-12
5193.439,2.5982E-12
5196.1802,2.6420E-12
5198.9214,2.7077E-12
5201.6626,2.7624E-12
5204.4038,2.7126E-12
5207.1445,2.6238E-12
5209.8857,2.6666E-12
5212.6265,2.7501E-12
5215.3677,2.7929E-12
5218.1084,2.7283E-12
5220.8491,2.8047E-12
5223.5903,2.8103E-12
5226.3311,2.6700E-12
5229.0718,2.5687E-12
5231.8125,2.6900E-12
5234.5532,2.6633E-12
5237.2939,2.7692E-12
5240.0347,2.8300E-12
5242.7754,2.8687E-12
5245.5156,2.8409E-12
5248.2563,2.8245E-12
5250.9971,2.7836E-12
5253.7373,2.7799E-12
5256.478,2.7898E-12
5259.2183,2.8539E-12
5261.9585,2.7341E-12
5264.6992,2.5361E-12
5267.4395,2.4632E-12
5270.1797,2.4320E-12
5272.9199,2.5486E-12
5275.6602,2.6443E-12
5278.4004,2.7349E-12
5281.1406,2.7764E-12
5283.8804,2.7284E-12
5286.6206,2.7958E-12
5289.3608,2.8778E-12
5292.1006,2.9017E-12
5294.8408,2.8576E-12
5297.5806,2.7849E-12
5300.3208,2.7451E-12
5303.0605,2.7847E-12
5305.8003,2.8367E-12
5308.5405,2.8715E-12
5311.2803,2.9069E-12
5314.02,2.8875E-12
5316.7598,2.8501E-12
5319.4995,2.8394E-12
5322.2388,2.8026E-12
5324.9785,2.6823E-12
5327.7183,2.6030E-12
5330.4575,2.5769E-12
5333.1973,2.7505E-12
5335.9365,2.7937E-12
5338.6763,2.7826E-12
5341.4155,2.7050E-12
5344.1548,2.7644E-12
5346.8945,2.7638E-12
5349.6338,2.7706E-12
5352.373,2.8234E-12
5355.1123,2.8596E-12
5357.8516,2.8939E-12
5360.5908,2.8784E-12
5363.3296,2.8268E-12
5366.0688,2.7604E-12
5368.8081,2.7264E-12
5371.5469,2.6467E-12
5374.2861,2.7230E-12
5377.0249,2.8307E-12
5379.7642,2.8084E-12
5382.5029,2.7808E-12
5385.2417,2.7739E-12
5387.9805,2.8034E-12
5390.7192,2.7577E-12
5393.458,2.6932E-12
5396.1968,2.6787E-12
5398.9355,2.6635E-12
5401.6743,2.6811E-12
5404.4126,2.6304E-12
5407.1514,2.6067E-12
5409.8896,2.6561E-12
5412.6284,2.6806E-12
5415.3667,2.7157E-12
5418.1055,2.7512E-12
5420.8438,2.7611E-12
5423.582,2.7437E-12
5426.3203,2.7147E-12
5429.0586,2.7211E-12
5431.7969,2.7072E-12
5434.5352,2.7075E-12
5437.2734,2.7487E-12
5440.0112,2.8230E-12
5442.7495,2.8021E-12
5445.4878,2.7520E-12
5448.2256,2.7155E-12
5451.5532,2.7432E-12
5456.4238,2.7405E-12
5461.2949,2.7657E-12
5466.1655,2.7157E-12
5471.0366,2.7491E-12
5475.9077,2.7092E-12
5480.7788,2.6932E-12
5485.6504,2.7252E-12
5490.5215,2.7419E-12
5495.3926,2.7585E-12
5500.2642,2.7386E-12
5505.1353,2.7204E-12
5510.0068,2.7227E-12
5514.8784,2.7171E-12
5519.75,2.7475E-12
5524.6216,2.7462E-12
5529.4932,2.6912E-12
5534.3652,2.7009E-12
5539.2368,2.7170E-12
5544.1089,2.7342E-12
5548.9805,2.7551E-12
5553.8525,2.7331E-12
5558.7246,2.7152E-12
5563.5967,2.6859E-12
5568.4688,2.6548E-12
5573.3408,2.6484E-12
5578.2129,2.6505E-12
5583.0854,2.6413E-12
5587.9575,2.5736E-12
5592.8301,2.5869E-12
5597.7026,2.6054E-12
5602.5747,2.6283E-12
5607.4473,2.6877E-12
5612.3198,2.6853E-12
5617.1929,2.6500E-12
5622.0654,2.6481E-12
5626.938,2.6364E-12
5631.811,2.6839E-12
5636.6836,2.6791E-12
5641.5566,2.6548E-12
5646.4297,2.6680E-12
5651.3027,2.6607E-12
5656.1758,2.6325E-12
5661.0488,2.6255E-12
5665.9219,2.6488E-12
5670.7949,2.6750E-12
5675.6685,2.6932E-12
5680.5415,2.6518E-12
5685.415,2.6398E-12
5690.2886,2.6437E-12
5695.1616,2.6460E-12
5700.0352,2.6409E-12
5704.9087,2.6079E-12
5709.7827,2.5651E-12
5714.6562,2.6157E-12
5719.5298,2.6731E-12
5724.4038,2.7048E-12
5729.2773,2.6984E-12
5734.1514,2.6832E-12
5739.0254,2.6858E-12
5743.8989,2.6904E-12
5748.7729,2.6685E-12
5753.647,2.6455E-12
5758.5215,2.6457E-12
5763.3955,2.6316E-12
5768.2695,2.6687E-12
5773.144,2.6594E-12
5778.0181,2.6521E-12
5782.8926,2.6079E-12
5787.7671,2.6000E-12
5792.6411,2.6219E-12
5797.5156,2.6429E-12
5802.3901,2.6500E-12
5807.2651,2.6388E-12
5812.1396,2.6406E-12
5817.0142,2.6158E-12
5821.8892,2.6455E-12
5826.7637,2.6604E-12
5831.6387,2.6549E-12
5836.5137,2.6398E-12
5841.3882,2.6451E-12
5846.2632,2.6368E-12
5851.1382,2.6171E-12
5856.0132,2.5896E-12
5860.8887,2.5785E-12
5865.7637,2.5997E-12
5870.6387,2.6203E-12
5875.5142,2.6113E-12
5880.3892,2.5957E-12
5885.2646,2.5448E-12
5890.1401,2.4142E-12
5895.0156,2.4113E-12
5899.8911,2.4794E-12
5904.7666,2.5491E-12
5909.6421,2.5895E-12
5914.5176,2.5796E-12
5919.3931,2.5850E-12
5924.269,2.5906E-12
5929.1445,2.5837E-12
5934.0205,2.5822E-12
5938.8965,2.5944E-12
5943.7725,2.5683E-12
5948.6479,2.5708E-12
5953.5239,2.5715E-12
5958.3999,2.5765E-12
5963.2764,2.5905E-12
5968.1523,2.5886E-12
5973.0283,2.5661E-12
5977.9048,2.5346E-12
5982.7808,2.5394E-12
5987.6572,2.5426E-12
5992.5332,2.5521E-12
5997.4097,2.5489E-12
6002.2861,2.5363E-12
6007.1626,2.5223E-12
6012.0391,2.5172E-12
6016.9155,2.5103E-12
6021.7925,2.4764E-12
6026.6689,2.5047E-12
6031.5454,2.5377E-12
6036.4224,2.5434E-12
6041.2988,2.5536E-12
6046.1758,2.5461E-12
6051.0527,2.5367E-12
6055.9297,2.5183E-12
6060.8062,2.5126E-12
6065.6836,2.5058E-12
6070.5605,2.5195E-12
6075.4375,2.5256E-12
6080.3145,2.5049E-12
6085.1914,2.4991E-12
6090.0688,2.4933E-12
6094.9458,2.4673E-12
6099.8232,2.4679E-12
6104.7007,2.4473E-12
6109.5776,2.4771E-12
6114.4551,2.4544E-12
6119.3325,2.4499E-12
6124.21,2.4377E-12
6129.0874,2.4430E-12
6133.9648,2.4403E-12
6138.8428,2.4080E-12
6143.7202,2.4190E-12
6148.5981,2.4205E-12
6153.4756,2.4229E-12
6158.3535,2.3998E-12
6163.231,2.3490E-12
6168.1089,2.3669E-12
6172.9868,2.3968E-12
6177.8647,2.4275E-12
6182.7427,2.4352E-12
6187.6206,2.4335E-12
6192.4985,2.4144E-12
6197.3765,2.4461E-12
6202.2549,2.4483E-12
6207.1328,2.4524E-12
6212.0107,2.4353E-12
6216.8892,2.4018E-12
6221.7676,2.4002E-12
6226.6455,2.4040E-12
6231.5239,2.3835E-12
6236.4023,2.4018E-12
6241.2808,2.3806E-12
6246.1592,2.3564E-12
6251.0376,2.3611E-12
6255.916,2.3450E-12
6260.7944,2.3659E-12
6265.6733,2.3844E-12
6270.5518,2.4035E-12
6275.4307,2.4118E-12
6280.3091,2.4001E-12
6285.188,2.4144E-12
6290.0669,2.4087E-12
6294.9453,2.4047E-12
6299.8242,2.3818E-12
6304.7031,2.3554E-12
6309.582,2.3686E-12
6314.4609,2.3416E-12
6319.3398,2.3271E-12
6324.2192,2.3401E-12
6329.0981,2.3227E-12
6333.9771,2.3095E-12
6338.8564,2.3206E-12
6343.7354,2.3410E-12
6348.6147,2.3639E-12
6353.4937,2.3588E-12
6358.373,2.3366E-12
6363.2524,2.3281E-12
6368.1318,2.3311E-12
6373.0112,2.3520E-12
6377.8906,2.3598E-12
6382.77,2.3626E-12
6387.6494,2.3611E-12
6392.5288,2.3328E-12
6397.4087,2.3093E-12
6402.2881,2.3033E-12
6407.1675,2.2917E-12
6412.0474,2.2906E-12
6416.9268,2.3005E-12
6421.8066,2.3033E-12
6426.6865,2.3175E-12
6431.5664,2.3012E-12
6436.4458,2.2961E-12
6441.3257,2.2735E-12
6446.2056,2.2961E-12
6451.0854,2.2791E-12
6455.9653,2.2907E-12
6460.8457,2.2760E-12
6465.7256,2.2793E-12
6470.6055,2.2795E-12
6475.4858,2.2841E-12
6480.3657,2.2900E-12
6485.2461,2.2867E-12
6490.126,2.2707E-12
6495.0063,2.2284E-12
6499.8867,2.2158E-12
6504.7666,2.2681E-12
6509.647,2.2845E-12
6514.5273,2.2893E-12
6519.4077,2.2699E-12
6524.2881,2.2712E-12
6529.1685,2.2659E-12
6534.0488,2.2656E-12
6538.9297,2.2593E-12
6543.8101,2.2410E-12
6548.6904,2.2055E-12
6553.5713,2.1276E-12
6558.4517,2.0396E-12
6563.3325,1.9216E-12
6568.2129,1.9801E-12
6573.0938,2.1057E-12
6577.9746,2.1683E-12
6582.855,2.2084E-12
6587.7358,2.2197E-12
6592.6167,2.1931E-12
6597.4976,2.2123E-12
6602.3784,2.2219E-12
6607.2593,2.2279E-12
6612.1401,2.2367E-12
6617.0215,2.2417E-12
6621.9023,2.2380E-12
6626.7832,2.2393E-12
6631.6646,2.2281E-12
6636.5454,2.2118E-12
6641.4268,2.2169E-12
6646.3076,2.2187E-12
6651.189,2.2345E-12
6656.0698,2.2332E-12
6660.9512,2.2329E-12
6665.8325,2.2232E-12
6670.7139,2.2057E-12
6675.5952,2.2198E-12
6680.4766,2.2103E-12
6685.3579,2.2265E-12
6690.2393,2.2183E-12
6695.1206,2.2184E-12
6700.002,2.1909E-12
6704.8833,2.1997E-12
6709.7651,2.1906E-12
6714.6465,2.1887E-12
6719.5278,2.1633E-12
6724.4097,2.1663E-12
6729.291,2.1832E-12
6734.1729,2.1914E-12
6739.0542,2.1878E-12
6743.936,2.1780E-12
6748.8179,2.1558E-12
6753.6997,2.1741E-12
6758.5811,2.1687E-12
6763.4629,2.1605E-12
6768.3447,2.1695E-12
6773.2266,2.1628E-12
6778.1084,2.1805E-12
6782.9902,2.1696E-12
6787.8726,2.1651E-12
6792.7544,2.1732E-12
6797.6362,2.1590E-12
6802.5181,2.1610E-12
6807.4004,2.1615E-12
6812.2822,2.1502E-12
6817.1641,2.1470E-12
6822.0464,2.1474E-12
6826.9282,2.1493E-12
6831.8105,2.1326E-12
6836.6929,2.1315E-12
6841.5747,2.1219E-12
6846.457,2.1132E-12
6851.3394,2.1165E-12
6856.2217,2.1150E-12
6861.104,2.1092E-12
6865.9863,2.1156E-12
6870.8687,2.1390E-12
6875.751,2.1224E-12
6880.6333,2.1093E-12
6885.5156,2.1109E-12
6890.3979,2.1188E-12
6895.2803,2.1223E-12
6900.1626,2.1237E-12
6905.0454,2.1143E-12
6909.9277,2.1151E-12
6914.8105,2.0971E-12
6919.6929,2.0964E-12
6924.5752,2.0973E-12
6929.458,2.0946E-12
6934.3408,2.0881E-12
6939.2231,2.0934E-12
6944.106,2.0871E-12
6948.9888,2.0714E-12
6953.8711,2.0860E-12
6958.7539,2.0873E-12
6963.6367,2.0912E-12
6968.5195,2.0811E-12
6973.4023,2.0713E-12
6978.2852,2.0422E-12
6983.168,2.0532E-12
6988.0508,2.0584E-12
6992.9336,2.0750E-12
6997.8164,2.0478E-12
7002.6992,2.0359E-12
7007.582,2.0313E-12
7012.4653,2.0279E-12
7017.3481,2.0257E-12
7022.231,2.0324E-12
7027.1143,2.0216E-12
7031.9971,2.0305E-12
7036.8804,2.0306E-12
7041.7632,2.0362E-12
7046.6465,2.0352E-12
7051.5293,2.0503E-12
7056.4126,2.0387E-12
7061.2954,2.0318E-12
7066.1787,2.0288E-12
7071.062,2.0161E-12
7075.9453,2.0284E-12
7080.8281,2.0284E-12
7085.7114,2.0159E-12
7090.5947,2.0058E-12
7095.478,2.0185E-12
7100.3613,2.0141E-12
7105.2446,2.0147E-12
7110.1279,2.0089E-12
7115.0112,2.0003E-12
7119.8945,2.0006E-12
7124.7778,1.9935E-12
7129.6611,1.9946E-12
7134.5449,1.9859E-12
7139.4282,1.9886E-12
7144.3115,1.9971E-12
7149.1948,1.9782E-12
7154.0786,1.9831E-12
7158.9619,1.9900E-12
7163.8457,1.9710E-12
7168.729,1.9637E-12
7173.6123,1.9714E-12
7178.4961,1.9648E-12
7183.3794,1.9514E-12
7188.2632,1.9246E-12
7193.147,1.9428E-12
7198.0303,1.9336E-12
7202.9141,1.9353E-12
7207.7979,1.9311E-12
7212.6812,1.9381E-12
7217.5649,1.9479E-12
7222.4487,1.9413E-12
7227.3325,1.9337E-12
7232.2163,1.9522E-12
7237.0996,1.9615E-12
7241.9834,1.9437E-12
7246.8672,1.9419E-12
7251.751,1.9382E-12
7256.6348,1.9472E-12
7261.5186,1.9366E-12
7266.4023,1.9328E-12
7271.2861,1.9299E-12
7276.1699,1.9351E-12
7281.0542,1.9154E-12
7285.938,1.8969E-12
7290.8218,1.8975E-12
7295.7056,1.9045E-12
7300.5894,1.9164E-12
7305.4736,1.9084E-12
7310.3574,1.9086E-12
7315.2412,1.9145E-12
7320.1255,1.9184E-12
7325.0093,1.9108E-12
7329.8931,1.9090E-12
7334.7773,1.9239E-12
7339.6611,1.9171E-12
7344.5454,1.9031E-12
7349.4292,1.8967E-12
7354.3135,1.8959E-12
7359.1973,1.9072E-12
7364.0815,1.8957E-12
7368.9653,1.8952E-12
7373.8496,1.8873E-12
7378.7339,1.8732E-12
7383.6177,1.8709E-12
7388.502,1.8502E-12
7393.3862,1.8541E-12
7398.27,1.8519E-12
7403.1543,1.8479E-12
7408.0386,1.8433E-12
7412.9229,1.8341E-12
7417.8071,1.8400E-12
7422.6909,1.8300E-12
7427.5752,1.8483E-12
7432.4595,1.8593E-12
7437.3438,1.8632E-12
7442.228,1.8445E-12
7447.1123,1.8396E-12
7451.9966,1.8464E-12
7456.8809,1.8509E-12
7461.7651,1.8449E-12
7466.6494,1.8499E-12
7471.5337,1.8529E-12
7476.418,1.8542E-12
7481.3022,1.8441E-12
7486.1865,1.8378E-12
7491.0708,1.8290E-12
7495.9551,1.8153E-12
7500.8398,1.8251E-12
7505.7241,1.8215E-12
7510.6084,1.8087E-12
7515.4927,1.8195E-12
7520.377,1.8277E-12
7525.2617,1.8130E-12
7530.146,1.8255E-12
7535.0303,1.8226E-12
7539.9146,1.8225E-12
7544.7993,1.8222E-12
7549.6836,1.8285E-12
7554.5679,1.8143E-12
7559.4526,1.8076E-12
7564.3369,1.8149E-12
7569.2212,1.8027E-12
7574.106,1.7986E-12
7578.9902,1.8053E-12
7583.8745,1.7988E-12
7588.7593,1.7928E-12
7593.6436,1.8048E-12
7598.5283,1.8084E-12
7603.4126,1.7904E-12
7608.2974,1.7861E-12
7613.1816,1.7917E-12
7618.0664,1.7774E-12
7622.9507,1.7811E-12
7627.8354,1.7911E-12
7632.7197,1.7922E-12
7637.6045,1.7896E-12
7642.4888,1.7885E-12
7647.3735,1.7793E-12
7652.2578,1.7670E-12
7657.1426,1.7454E-12
7662.0269,1.7241E-12
7666.9116,1.7249E-12
7671.7964,1.7589E-12
7676.6807,1.7711E-12
7681.5654,1.7606E-12
7686.4497,1.7588E-12
7691.3345,1.7498E-12
7696.2192,1.7499E-12
7701.1035,1.7431E-12
7705.9883,1.7625E-12
7710.873,1.7492E-12
7715.7573,1.7321E-12
7720.6421,1.7415E-12
7725.5269,1.7431E-12
7730.4111,1.7502E-12
7735.2959,1.7566E-12
7740.1807,1.7375E-12
7745.0654,1.7272E-12
7749.9497,1.7260E-12
7754.8345,1.7359E-12
7759.7192,1.7525E-12
7764.6035,1.7449E-12
7769.4883,1.7380E-12
7774.373,1.7252E-12
7779.2578,1.7270E-12
7784.1421,1.7101E-12
7789.0269,1.7157E-12
7793.9116,1.7204E-12
7798.7964,1.7235E-12
7803.6807,1.7197E-12
7808.5654,1.7247E-12
7813.4502,1.7236E-12
7818.335,1.7295E-12
7823.2192,1.7269E-12
7828.104,1.7124E-12
7832.9888,1.7052E-12
7837.8735,1.7033E-12
7842.7578,1.7119E-12
7847.6426,1.7055E-12
7852.5273,1.7038E-12
7857.4121,1.7096E-12
7862.2969,1.7189E-12
7867.1812,1.7160E-12
7872.0659,1.7069E-12
7876.9507,1.7032E-12
7881.8354,1.6956E-12
7886.7197,1.6901E-12
7891.6045,1.6934E-12
7896.4893,1.7117E-12
7901.374,1.7095E-12
7906.2583,1.7100E-12
7911.1431,1.6892E-12
7916.0278,1.6834E-12
7920.9126,1.6835E-12
7925.7969,1.6725E-12
7930.6816,1.6670E-12
7935.5664,1.6490E-12
7940.4512,1.6460E-12
7945.3354,1.6349E-12
7950.2202,1.6510E-12
7955.105,1.6708E-12
7959.9897,1.6674E-12
7964.874,1.6667E-12
7969.7588,1.6584E-12
7974.6436,1.6592E-12
7979.5278,1.6745E-12
7984.4126,1.6757E-12
7989.2974,1.6688E-12
7994.1816,1.6611E-12
7999.0664,1.6437E-12
8003.9512,1.6402E-12
8008.8354,1.6431E-12
8013.7202,1.6507E-12
8018.605,1.6502E-12
8023.4893,1.6470E-12
8028.374,1.6393E-12
8033.2588,1.6264E-12
8038.1431,1.6299E-12
8043.0278,1.6368E-12
8047.9121,1.6107E-12
8052.7969,1.6196E-12
8057.6816,1.6213E-12
8062.5659,1.6311E-12
8067.4507,1.6298E-12
8072.335,1.6219E-12
8077.2197,1.6113E-12
8082.104,1.6149E-12
8086.9888,1.6006E-12
8091.873,1.5959E-12
8096.7578,1.6028E-12
8101.6421,1.5903E-12
8106.5269,1.6119E-12
8111.4111,1.6142E-12
8116.2959,1.6148E-12
8121.1802,1.6260E-12
8126.0649,1.6155E-12
8130.9492,1.6106E-12
8135.8335,1.6090E-12
8140.7183,1.5992E-12
8145.6025,1.5984E-12
8150.4868,1.5957E-12
8155.3716,1.5983E-12
8160.2559,1.6045E-12
8165.1401,1.5984E-12
8170.0249,1.6002E-12
8174.9092,1.5802E-12
8179.7935,1.5712E-12
8184.6777,1.5626E-12
8189.5625,1.5564E-12
8194.4463,1.5413E-12
8199.3311,1.5487E-12
8204.2158,1.5539E-12
8209.0996,1.5515E-12
8213.9844,1.5441E-12
8218.8682,1.5436E-12
8223.7529,1.5435E-12
8228.6367,1.5609E-12
8233.5215,1.5505E-12
8238.4062,1.5501E-12
8243.29,1.5616E-12
8248.1748,1.5518E-12
8253.0586,1.5553E-12
8257.9434,1.5593E-12
8262.8271,1.5631E-12
8267.7119,1.5496E-12
8272.5957,1.5481E-12
8277.4795,1.5511E-12
8282.3643,1.5544E-12
8287.248,1.5512E-12
8292.1328,1.5401E-12
8297.0166,1.5362E-12
8301.9014,1.5388E-12
8306.7852,1.5415E-12
8311.6689,1.5318E-12
8316.5537,1.5284E-12
8321.4375,1.5271E-12
8326.3213,1.5133E-12
8331.2061,1.4956E-12
8336.0898,1.4995E-12
8340.9736,1.4982E-12
8345.8584,1.4985E-12
8350.7422,1.5048E-12
8355.626,1.5143E-12
8360.5107,1.5107E-12
8365.3945,1.5056E-12
8370.2783,1.5121E-12
8375.1621,1.5150E-12
8380.0459,1.5139E-12
8384.9307,1.5134E-12
8389.8145,1.5095E-12
8394.6982,1.5139E-12
8399.582,1.5178E-12
8404.4658,1.5101E-12
8409.3506,1.5092E-12
8414.2344,1.5051E-12
8419.1182,1.5034E-12
8424.002,1.5021E-12
8428.8857,1.4984E-12
8433.7695,1.4978E-12
8438.6533,1.4816E-12
8443.5371,1.4745E-12
8448.4209,1.4791E-12
8453.3047,1.4812E-12
8458.1885,1.4818E-12
8463.0723,1.4909E-12
8467.9561,1.4851E-12
8472.8398,1.4832E-12
8477.7236,1.4899E-12
8482.6074,1.4768E-12
8487.4912,1.4757E-12
8492.375,1.4575E-12
8497.2588,1.4054E-12
8502.1426,1.3781E-12
8507.0254,1.4320E-12
8511.9092,1.4507E-12
8516.793,1.4538E-12
8521.6768,1.4458E-12
8526.5605,1.4348E-12
8531.4434,1.3947E-12
8536.3271,1.3633E-12
8541.2109,1.2998E-12
8546.0947,1.2324E-12
8550.9775,1.3512E-12
8555.8613,1.3665E-12
8560.7451,1.4153E-12
8565.6279,1.4493E-12
8570.5117,1.4515E-12
8575.3955,1.4555E-12
8580.2783,1.4530E-12
8585.1621,1.4505E-12
8590.0449,1.4475E-12
8594.9287,1.4470E-12
8599.8115,1.4282E-12
8604.6953,1.4282E-12
8609.5781,1.4355E-12
8614.4619,1.4290E-12
8619.3447,1.4266E-12
8624.2285,1.4248E-12
8629.1113,1.4267E-12
8633.9951,1.4098E-12
8638.8779,1.4158E-12
8643.7607,1.4162E-12
8648.6445,1.3923E-12
8653.5273,1.3629E-12
8658.4102,1.3018E-12
8663.2939,1.2512E-12
8668.1768,1.2674E-12
8673.0596,1.3507E-12
8677.9424,1.3634E-12
8682.8262,1.3902E-12
8687.709,1.3921E-12
8692.5918,1.3996E-12
8697.4746,1.4061E-12
8702.3574,1.4052E-12
8707.2402,1.4124E-12
8712.124,1.4067E-12
8717.0068,1.4033E-12
8721.8896,1.4067E-12
8726.7725,1.4087E-12
8731.6553,1.3936E-12
8736.5381,1.3922E-12
8741.4209,1.3876E-12
8746.3037,1.3890E-12
8751.1865,1.3734E-12
8756.0693,1.3766E-12
8760.9512,1.3823E-12
8765.834,1.3811E-12
8770.7168,1.3855E-12
8775.5996,1.3760E-12
8780.4824,1.3889E-12
8785.3643,1.3860E-12
8790.2471,1.3837E-12
8795.1299,1.3614E-12
8800.0127,1.3714E-12
8804.8945,1.3630E-12
8809.7773,1.3600E-12
8814.6602,1.3677E-12
8819.542,1.3750E-12
8824.4248,1.3672E-12
8829.3066,1.3730E-12
8834.1895,1.3779E-12
8839.0723,1.3737E-12
8843.9541,1.3774E-12
8848.8369,1.3757E-12
8853.7188,1.3636E-12
8858.6006,1.3569E-12
8863.4834,1.3483E-12
8868.3652,1.3471E-12
8873.248,1.3540E-12
8878.1299,1.3629E-12
8883.0117,1.3635E-12
8887.8936,1.3606E-12
8892.7764,1.3509E-12
8897.6582,1.3475E-12
8902.54,1.3425E-12
8907.4219,1.3512E-12
8912.3037,1.3610E-12
8917.1865,1.3629E-12
8922.0684,1.3694E-12
8926.9502,1.3501E-12
8931.832,1.3384E-12
8936.7139,1.3403E-12
8941.5957,1.3362E-12
8946.4775,1.3366E-12
8951.3594,1.3395E-12
8956.2412,1.3497E-12
8961.123,1.3496E-12
8966.0049,1.3467E-12
8970.8857,1.3346E-12
8975.7676,1.3314E-12
8980.6494,1.3324E-12
8985.5312,1.3354E-12
8990.4131,1.3356E-12
8995.2939,1.3247E-12
9000.1758,1.3142E-12
9005.0576,1.2945E-12
9009.9385,1.2867E-12
9014.8203,1.2892E-12
9019.7012,1.2979E-12
9024.583,1.3025E-12
9029.4639,1.3167E-12
9034.3457,1.3306E-12
9039.2266,1.3267E-12
9044.1084,1.3253E-12
9048.9893,1.3180E-12
9053.8711,1.3091E-12
9058.752,1.3088E-12
9063.6328,1.3031E-12
9068.5146,1.3083E-12
9073.3955,1.3237E-12
9078.2764,1.3075E-12
9083.1572,1.2994E-12
9088.0381,1.2841E-12
9092.9199,1.2728E-12
9097.8008,1.2831E-12
9102.6816,1.2912E-12
9107.5625,1.2911E-12
9112.4434,1.2892E-12
9117.3242,1.2921E-12
9122.2051,1.2840E-12
9127.0859,1.2880E-12
9131.9668,1.3014E-12
9136.8477,1.2986E-12
9141.7275,1.2955E-12
9146.6084,1.3002E-12
9151.4893,1.2913E-12
9156.3701,1.3082E-12
9161.25,1.3056E-12
9166.1309,1.2902E-12
9171.0117,1.2789E-12
9175.8916,1.2759E-12
9180.7725,1.2723E-12
9185.6533,1.2778E-12
9190.5332,1.2869E-12
9195.4141,1.2815E-12
9200.2939,1.2804E-12
9205.1738,1.2642E-12
9210.0547,1.2483E-12
9214.9346,1.2336E-12
9219.8154,1.2315E-12
9224.6953,1.2329E-12
9229.5752,1.2245E-12
9234.4551,1.2352E-12
9239.3359,1.2390E-12
9244.2158,1.2270E-12
9249.0957,1.2261E-12
9253.9756,1.2293E-12
9258.8555,1.2245E-12
9263.7354,1.2344E-12
9268.6152,1.2366E-12
9273.4951,1.2410E-12
9278.375,1.2489E-12
9283.2549,1.2468E-12
9288.1348,1.2558E-12
9293.0146,1.2565E-12
9297.8936,1.2564E-12
9302.7734,1.2546E-12
9307.6533,1.2531E-12
9312.5332,1.2394E-12
9317.4121,1.2321E-12
9322.292,1.2326E-12
9327.1719,1.2382E-12
9332.0508,1.2407E-12
9336.9307,1.2373E-12
9341.8096,1.2311E-12
9346.6895,1.2309E-12
9351.5684,1.2347E-12
9356.4473,1.2325E-12
9361.3271,1.2308E-12
9366.2061,1.2305E-12
9371.085,1.2243E-12
9375.9639,1.2236E-12
9380.8438,1.2227E-12
9385.7227,1.2255E-12
9390.6016,1.2291E-12
9395.4805,1.2206E-12
9400.3594,1.2145E-12
9405.2383,1.2006E-12
9410.1172,1.1997E-12
9414.9961,1.1788E-12
9419.875,1.1768E-12
9424.7539,1.1900E-12
9429.6328,1.2010E-12
9434.5107,1.2066E-12
9439.3896,1.2012E-12
9444.2686,1.2008E-12
9449.1475,1.1979E-12
9454.0254,1.1990E-12
9458.9043,1.1999E-12
9463.7822,1.2014E-12
9468.6611,1.2003E-12
9473.5391,1.2050E-12
9478.418,1.2068E-12
9483.2959,1.2080E-12
9488.1748,1.2076E-12
9493.0527,1.1938E-12
9497.9307,1.1972E-12
9502.8086,1.1914E-12
9507.6875,1.1901E-12
9512.5654,1.1912E-12
9517.4434,1.1925E-12
9522.3213,1.1805E-12
9527.1992,1.1821E-12
9532.0771,1.1818E-12
9536.9551,1.1657E-12
9541.833,1.1678E-12
9546.7109,1.1512E-12
9551.5889,1.1435E-12
9556.4668,1.1487E-12
9561.3438,1.1747E-12
9566.2217,1.1732E-12
9571.0996,1.1715E-12
9575.9766,1.1683E-12
9580.8545,1.1631E-12
9585.7324,1.1662E-12
9590.6094,1.1676E-12
9595.4873,1.1615E-12
9600.3643,1.1649E-12
9605.2412,1.1513E-12
9610.1191,1.1495E-12
9614.9961,1.1716E-12
9619.873,1.1613E-12
9624.751,1.1635E-12
9629.6279,1.1627E-12
9634.5049,1.1607E-12
9639.3818,1.1505E-12
9644.2588,1.1475E-12
9649.1357,1.1409E-12
9654.0127,1.1453E-12
9658.8896,1.1490E-12
9663.7666,1.1497E-12
9668.6436,1.1531E-12
9673.5205,1.1500E-12
9678.3965,1.1406E-12
9683.2734,1.1441E-12
9688.1504,1.1463E-12
9693.0264,1.1442E-12
9697.9033,1.1522E-12
9702.7793,1.1559E-12
9707.6562,1.1377E-12
9712.5322,1.1426E-12
9717.4092,1.1330E-12
9722.2852,1.1327E-12
9727.1621,1.1297E-12
9732.0381,1.1326E-12
9736.9141,1.1254E-12
9741.79,1.1269E-12
9746.666,1.1261E-12
9751.542,1.1326E-12
9756.4189,1.1240E-12
9761.2949,1.1296E-12
9766.1699,1.1271E-12
9771.0459,1.1291E-12
9775.9219,1.1269E-12
9780.7979,1.1311E-12
9785.6738,1.1331E-12
9790.5498,1.1388E-12
9795.4248,1.1246E-12
9800.3008,1.1246E-12
9805.1758,1.1232E-12
9810.0518,1.1251E-12
9814.9277,1.1152E-12
9819.8027,1.1146E-12
9824.6777,1.1054E-12
9829.5537,1.1103E-12
9834.4287,1.1160E-12
9839.3037,1.1125E-12
9844.1797,1.1107E-12
9849.0547,1.1141E-12
9853.9297,1.1124E-12
9858.8047,1.1114E-12
9863.6797,1.1224E-12
9868.5547,1.1015E-12
9873.4297,1.1023E-12
9878.3047,1.1178E-12
9883.1797,1.1183E-12
9888.0537,1.1077E-12
9892.9287,1.1064E-12
9897.8037,1.1066E-12
9902.6777,1.1042E-12
9907.5527,1.1014E-12
9912.4277,1.0925E-12
9917.3018,1.0892E-12
9922.1758,1.0976E-12
9927.0508,1.0977E-12
9931.9248,1.0908E-12
9936.7988,1.0863E-12
9941.6738,1.0954E-12
9946.5479,1.0936E-12
9951.4219,1.0842E-12
9956.2959,1.0882E-12
9961.1699,1.0913E-12
9966.0439,1.0885E-12
9970.918,1.0895E-12
9975.792,1.0867E-12
9980.666,1.0819E-12
9985.54,1.0770E-12
9990.4131,1.0719E-12
9995.2871,1.0850E-12
10000.161,1.0808E-12
10005.034,1.0938E-12
10009.908,1.0814E-12
10014.781,1.0852E-12
10019.655,1.0746E-12
10024.528,1.0745E-12
10029.402,1.0688E-12
10034.275,1.0591E-12
10039.148,1.0523E-12
10044.021,1.0437E-12
10048.895,1.0269E-12
10053.768,1.0262E-12
10058.641,1.0295E-12
10063.514,1.0421E-12
10068.387,1.0347E-12
10073.26,1.0414E-12
10078.133,1.0434E-12
10083.006,1.0357E-12
10087.878,1.0402E-12
10092.751,1.0550E-12
10097.624,1.0603E-12
10102.496,1.0461E-12
10107.369,1.0486E-12
10112.241,1.0556E-12
10117.114,1.0524E-12
10124.905,1.0502E-12
10135.035,1.0471E-12
10145.176,1.0425E-12
10155.326,1.0402E-12
10165.486,1.0413E-12
10175.656,1.0418E-12
10185.838,1.0375E-12
10196.028,1.0313E-12
10206.229,1.0304E-12
10216.441,1.0264E-12
10226.662,1.0257E-12
10236.894,1.0283E-12
10247.137,1.0280E-12
10257.389,1.0255E-12
10267.651,1.0232E-12
10277.924,1.0203E-12
10288.207,1.0155E-12
10298.5,1.0128E-12
10308.804,1.0115E-12
10319.117,1.0071E-12
10329.442,9.9933E-13
10339.776,9.9537E-13
10350.121,9.9498E-13
10360.477,9.9653E-13
10370.842,9.9223E-13
10381.219,9.9017E-13
10391.605,9.9092E-13
10402.002,9.8990E-13
10412.408,9.8987E-13
10422.826,9.8848E-13
10433.254,9.8668E-13
10443.692,9.8316E-13
10454.142,9.7373E-13
10464.601,9.6927E-13
10475.07,9.7368E-13
10485.551,9.7607E-13
10496.041,9.7451E-13
10506.543,9.7257E-13
10517.055,9.7083E-13
10527.577,9.6661E-13
10538.11,9.6354E-13
10548.653,9.6449E-13
10559.208,9.6343E-13
10569.771,9.5955E-13
10580.347,9.4918E-13
10590.933,9.4218E-13
10601.528,9.4131E-13
10612.135,9.4230E-13
10622.753,9.4630E-13
10633.381,9.4658E-13
10644.02,9.4608E-13
10654.669,9.3964E-13
10665.328,9.3179E-13
10676,9.2667E-13
10686.681,9.1030E-13
10697.373,9.0858E-13
10708.076,9.2113E-13
10718.789,9.2267E-13
10729.513,9.1656E-13
10740.248,9.1533E-13
10750.994,9.1213E-13
10761.75,9.1588E-13
10772.518,9.1796E-13
10783.295,9.0897E-13
10794.083,9.0659E-13
10804.883,9.0926E-13
10815.693,9.0217E-13
10826.515,8.9273E-13
10837.346,8.9322E-13
10848.189,8.9920E-13
10859.043,8.9551E-13
10869.907,8.8124E-13
10880.782,8.7960E-13
10891.669,8.8475E-13
10902.566,8.8908E-13
10913.475,8.8484E-13
10924.394,8.7268E-13
10935.322,8.4811E-13
10946.264,8.4190E-13
10957.216,8.5786E-13
10968.178,8.6421E-13
10979.151,8.6181E-13
10990.136,8.6611E-13
11001.132,8.7509E-13
11012.139,8.7037E-13
11023.155,8.6556E-13
11034.185,8.6978E-13
11045.225,8.7083E-13
11056.274,8.6941E-13
11067.336,8.6774E-13
11078.409,8.6613E-13
11089.493,8.6469E-13
11100.588,8.6306E-13
11111.694,8.5879E-13
11122.812,8.5318E-13
11133.94,8.5151E-13
11145.079,8.5180E-13
11156.23,8.5038E-13
11167.393,8.5064E-13
11178.565,8.4681E-13
11189.75,8.3767E-13
11200.945,8.3602E-13
11212.15,8.4063E-13
11223.369,8.4297E-13
11234.599,8.4065E-13
11245.838,8.3267E-13
11257.09,8.2558E-13
11268.352,8.2897E-13
11279.627,8.2843E-13
11290.912,8.2196E-13
11302.208,8.1978E-13
11313.516,8.2006E-13
11324.835,8.1900E-13
11336.166,8.1794E-13
11347.508,8.1966E-13
11358.859,8.1988E-13
11370.225,8.1588E-13
11381.601,8.0859E-13
11392.988,8.0392E-13
11404.387,7.9976E-13
11415.797,8.0054E-13
11427.218,8.0222E-13
11438.651,8.0148E-13
11450.096,8.0265E-13
11461.552,8.0537E-13
11473.019,8.0285E-13
11484.497,7.9619E-13
11495.987,7.9230E-13
11507.489,7.9288E-13
11519.003,7.9419E-13
11530.527,7.9485E-13
11542.062,7.9494E-13
11553.611,7.9349E-13
11565.171,7.9037E-13
11576.742,7.8523E-13
11588.324,7.7607E-13
11599.918,7.6792E-13
11611.523,7.6544E-13
11623.141,7.7022E-13
11634.771,7.7096E-13
11646.411,7.6866E-13
11658.062,7.6827E-13
11669.727,7.6812E-13
11681.402,7.6723E-13
11693.09,7.6292E-13
11704.789,7.6468E-13
11716.499,7.6793E-13
11728.222,7.6704E-13
11739.956,7.6185E-13
11751.701,7.5232E-13
11763.459,7.5077E-13
11775.229,7.5146E-13
11787.01,7.5086E-13
11798.803,7.5376E-13
11810.606,7.5318E-13
11822.423,7.4344E-13
11834.252,7.3475E-13
11846.093,7.4042E-13
11857.944,7.4559E-13
11869.809,7.4272E-13
11881.684,7.3162E-13
11893.57,7.2799E-13
11905.471,7.3609E-13
11917.382,7.3994E-13
11929.306,7.3905E-13
11941.24,7.3630E-13
11953.188,7.3192E-13
11965.146,7.2652E-13
11977.118,7.1497E-13
11989.102,7.0753E-13
12001.096,7.1556E-13
12013.104,7.2316E-13
12025.122,7.1715E-13
12037.153,7.1063E-13
12049.197,7.1669E-13
12061.252,7.1985E-13
12073.319,7.1516E-13
12085.398,7.0621E-13
12097.49,7.0334E-13
12109.594,7.0229E-13
12121.709,7.0714E-13
12133.837,7.1026E-13
12145.977,7.1060E-13
12158.129,7.0998E-13
12170.293,7.0710E-13
12182.47,7.0364E-13
12194.658,7.0209E-13
12206.859,7.0212E-13
12219.071,7.0035E-13
12231.297,6.9840E-13
12243.534,6.9783E-13
12255.783,6.9553E-13
12268.046,6.8963E-13
12280.32,6.8831E-13
12292.606,6.9076E-13
12304.904,6.9006E-13
12317.216,6.8833E-13
12329.54,6.8667E-13
12341.875,6.8523E-13
12354.223,6.8464E-13
12366.583,6.8425E-13
12378.956,6.8207E-13
12391.342,6.7762E-13
12403.739,6.7567E-13
12416.148,6.7373E-13
12428.57,6.6858E-13
12441.006,6.6886E-13
12453.453,6.7174E-13
12465.913,6.7091E-13
12478.385,6.6975E-13
12490.869,6.6924E-13
12503.367,6.6763E-13
12515.877,6.6452E-13
12528.398,6.6206E-13
12540.933,6.6108E-13
12553.48,6.5871E-13
12566.04,6.5601E-13
12578.612,6.5441E-13
12591.197,6.5333E-13
12603.794,6.5255E-13
12616.405,6.5039E-13
12629.027,6.4915E-13
12641.662,6.4754E-13
12654.311,6.4721E-13
12666.972,6.4654E-13
12679.645,6.4307E-13
12692.33,6.4262E-13
12705.029,6.4386E-13
12717.74,6.4300E-13
12730.465,6.4107E-13
12743.201,6.3933E-13
12755.951,6.3818E-13
12768.713,6.3657E-13
12781.488,6.3317E-13
12794.276,6.2524E-13
12807.076,6.0460E-13
12819.891,5.8213E-13
12832.716,5.9414E-13
12845.556,6.1416E-13
12858.407,6.2073E-13
12871.271,6.2211E-13
12884.15,6.2080E-13
12897.041,6.1727E-13
12909.943,6.1634E-13
12922.86,6.1827E-13
12935.79,6.1753E-13
12948.731,6.1718E-13
12961.688,6.1634E-13
12974.656,6.1374E-13
12987.637,6.1290E-13
13000.631,6.1227E-13
13013.638,6.0923E-13
13026.658,6.0435E-13
13039.691,6.0226E-13
13052.736,6.0448E-13
13065.796,6.0534E-13
13078.868,6.0420E-13
13091.954,6.0118E-13
13105.053,5.9702E-13
13118.164,5.9375E-13
13131.289,5.9173E-13
13144.426,5.9017E-13
13157.578,5.8797E-13
13170.742,5.8990E-13
13183.92,5.9060E-13
13197.109,5.9134E-13
13210.313,5.9066E-13
13223.53,5.8996E-13
13236.76,5.8905E-13
13250.004,5.8684E-13
13263.261,5.8338E-13
13276.531,5.7969E-13
13289.813,5.7454E-13
13303.11,5.7422E-13
13316.42,5.7349E-13
13329.742,5.7349E-13
13343.078,5.7632E-13
13356.428,5.7624E-13
13369.791,5.7495E-13
13383.168,5.7152E-13
13396.558,5.6893E-13
13409.961,5.7014E-13
13423.378,5.6981E-13
13436.808,5.6857E-13
13450.252,5.6791E-13
13463.709,5.6687E-13
13477.179,5.6551E-13
13490.663,5.6201E-13
13504.16,5.5934E-13
13517.671,5.6046E-13
13531.195,5.6038E-13
13544.734,5.5676E-13
13558.285,5.5225E-13
13571.85,5.5150E-13
13585.429,5.5193E-13
13599.021,5.5139E-13
13612.627,5.5099E-13
13626.246,5.4701E-13
13639.879,5.4512E-13
13653.525,5.4614E-13
13667.187,5.4448E-13
13680.86,5.4149E-13
13694.547,5.3857E-13
13708.25,5.3772E-13
13721.964,5.3835E-13
13735.693,5.3933E-13
13749.436,5.3836E-13
13763.192,5.3670E-13
13776.962,5.3655E-13
13790.746,5.3607E-13
13804.543,5.3493E-13
13818.354,5.3250E-13
13832.18,5.3058E-13
13846.02,5.3017E-13
13859.872,5.2902E-13
13873.739,5.2793E-13
13887.619,5.2706E-13
13901.514,5.2508E-13
13915.422,5.2511E-13
13929.345,5.2506E-13
13943.281,5.2318E-13
13957.231,5.2182E-13
13971.195,5.2165E-13
13985.174,5.1961E-13
13999.166,5.1472E-13
14013.172,5.1356E-13
14027.192,5.1400E-13
14041.227,5.1313E-13
14055.274,5.1282E-13
14069.337,5.1164E-13
14083.413,5.1013E-13
14097.504,5.0908E-13
14111.607,5.0441E-13
14125.727,5.0160E-13
14139.859,5.0432E-13
14154.006,5.0568E-13
14168.168,5.0504E-13
14182.343,5.0417E-13
14196.532,5.0106E-13
14210.736,4.9689E-13
14224.953,4.9417E-13
14239.186,4.9378E-13
14253.432,4.9492E-13
14267.693,4.9540E-13
14281.968,4.9237E-13
14296.256,4.8904E-13
14310.559,4.9063E-13
14324.878,4.9176E-13
14339.209,4.9135E-13
14353.556,4.9167E-13
14367.916,4.9084E-13
14382.291,4.8826E-13
14396.681,4.8110E-13
14411.085,4.7646E-13
14425.503,4.7725E-13
14439.936,4.7853E-13
14454.384,4.8020E-13
14468.844,4.7978E-13
14483.32,4.7791E-13
14497.812,4.7514E-13
14512.315,4.7270E-13
14526.836,4.7266E-13
14541.369,4.7005E-13
14555.918,4.6785E-13
14570.482,4.7001E-13
14585.06,4.7297E-13
14599.652,4.7283E-13
14614.259,4.7027E-13
14628.881,4.6738E-13
14643.517,4.6533E-13
14658.168,4.6439E-13
14672.832,4.6525E-13
14687.512,4.6410E-13
14702.207,4.6079E-13
14716.918,4.5755E-13
14731.642,4.5595E-13
14746.381,4.5581E-13
14761.134,4.5604E-13
14775.902,4.5610E-13
14790.686,4.5694E-13
14805.483,4.5667E-13
14820.297,4.5416E-13
14835.125,4.5282E-13
14849.967,4.5338E-13
14864.824,4.4918E-13
14879.696,4.4327E-13
14894.584,4.4591E-13
14909.486,4.4856E-13
14924.403,4.4947E-13
14939.335,4.4767E-13
14954.281,4.4349E-13
14969.243,4.4193E-13
14984.22,4.4208E-13
14999.211,4.4178E-13
15014.218,4.3566E-13
15029.239,4.2389E-13
15044.276,4.1937E-13
15059.328,4.2561E-13
15074.395,4.3447E-13
15089.478,4.3702E-13
15104.574,4.3715E-13
15119.687,4.3522E-13
15134.813,4.3246E-13
15149.956,4.3138E-13
15165.113,4.3078E-13
15180.285,4.3077E-13
15195.474,4.2962E-13
15210.676,4.2697E-13
15225.895,4.2609E-13
15241.129,4.2592E-13
15256.377,4.2567E-13
15271.642,4.2584E-13
15286.92,4.2245E-13
15302.216,4.1921E-13
15317.524,4.2188E-13
15332.851,4.2140E-13
15348.191,4.2045E-13
15363.546,4.2076E-13
15378.917,4.1773E-13
15394.305,4.1322E-13
15409.706,4.1271E-13
15425.123,4.1452E-13
15440.557,4.1474E-13
15456.005,4.1403E-13
15471.469,4.1137E-13
15486.947,4.0832E-13
15502.442,4.0744E-13
15517.953,4.0746E-13
15533.478,4.0387E-13
15549.02,3.9985E-13
15564.576,4.0016E-13
15580.148,4.0088E-13
15595.736,3.9817E-13
15611.34,3.9806E-13
15626.959,3.9834E-13
15642.594,3.9802E-13
15658.244,3.9600E-13
15673.91,3.9108E-13
15689.592,3.8746E-13
15705.289,3.9001E-13
15721.002,3.9265E-13
15736.73,3.8774E-13
15752.476,3.7896E-13
15768.236,3.7375E-13
15784.013,3.7878E-13
15799.804,3.8526E-13
15815.611,3.8365E-13
15831.436,3.7929E-13
15847.274,3.7928E-13
15863.13,3.7632E-13
15879,3.6368E-13
15894.888,3.5268E-13
15910.791,3.5915E-13
15926.709,3.7146E-13
15942.645,3.7710E-13
15958.595,3.7613E-13
15974.561,3.7594E-13
15990.543,3.7619E-13
16006.542,3.7247E-13
16022.557,3.7129E-13
16038.588,3.7088E-13
16054.634,3.6954E-13
16070.695,3.6811E-13
16086.775,3.6350E-13
16102.87,3.5455E-13
16118.98,3.5288E-13
16135.107,3.5962E-13
16151.251,3.6242E-13
16167.41,3.6022E-13
16183.585,3.5971E-13
16199.777,3.5721E-13
16215.985,3.5618E-13
16232.209,3.5852E-13
16248.449,3.6046E-13
16264.706,3.6378E-13
16280.979,3.6475E-13
16297.268,3.6249E-13
16313.573,3.5880E-13
16329.895,3.5606E-13
16346.232,3.5593E-13
16362.588,3.5217E-13
16378.959,3.4198E-13
16395.346,3.3116E-13
16411.75,3.2730E-13
16428.168,3.3385E-13
16444.605,3.4051E-13
16461.059,3.4452E-13
16477.527,3.4465E-13
16494.012,3.4314E-13
16510.516,3.4163E-13
16527.033,3.3999E-13
16543.57,3.3989E-13
16560.121,3.3998E-13
16576.689,3.4061E-13
16593.273,3.4046E-13
16609.875,3.4025E-13
16626.494,3.3880E-13
16643.129,3.3606E-13
16659.781,3.3314E-13
16676.449,3.3201E-13
16693.133,3.3242E-13
16709.836,3.3111E-13
16726.553,3.2804E-13
16743.287,3.2564E-13
16760.039,3.2257E-13
16776.809,3.1998E-13
16793.592,3.1094E-13
16810.395,3.0188E-13
16827.213,3.0657E-13
16844.049,3.1445E-13
16860.902,3.1628E-13
16877.771,3.1653E-13
16894.656,3.1718E-13
16911.561,3.1899E-13
16928.48,3.1930E-13
16945.418,3.1793E-13
16962.371,3.1592E-13
16979.342,3.1465E-13
16996.33,3.1229E-13
17013.336,3.0945E-13
17030.355,3.0899E-13
17047.395,3.0924E-13
17064.451,3.0929E-13
17081.523,3.0892E-13
17098.615,3.0627E-13
17115.721,3.0348E-13
17132.846,3.0495E-13
17149.986,3.0526E-13
17167.145,3.0428E-13
17184.32,3.0344E-13
17201.514,3.0090E-13
17218.725,2.9750E-13
17235.951,2.9538E-13
17253.195,2.9541E-13
17270.457,2.9443E-13
17287.736,2.9264E-13
17305.033,2.9054E-13
17322.346,2.8516E-13
17339.678,2.7755E-13
17357.027,2.6895E-13
17374.393,2.6844E-13
17391.775,2.7768E-13
17409.176,2.8296E-13
17426.594,2.8432E-13
17444.027,2.8294E-13
17461.48,2.8060E-13
17478.951,2.8061E-13
17496.439,2.8122E-13
17513.943,2.8080E-13
17531.467,2.8047E-13
17549.006,2.7993E-13
17566.564,2.7871E-13
17584.141,2.7745E-13
17601.734,2.7528E-13
17619.344,2.7268E-13
17636.971,2.7345E-13
17654.617,2.7497E-13
17672.281,2.7414E-13
17689.963,2.7151E-13
17707.66,2.6882E-13
17725.377,2.6715E-13
17743.111,2.6683E-13
17760.863,2.6612E-13
17778.633,2.6552E-13
17796.422,2.6548E-13
17814.227,2.6384E-13
17832.049,2.6185E-13
17849.891,2.6146E-13
17867.75,2.6265E-13
17885.625,2.6313E-13
17903.52,2.6164E-13
17921.432,2.5894E-13
17939.363,2.5699E-13
17957.311,2.5627E-13
17975.277,2.5504E-13
17993.262,2.5273E-13
18011.264,2.5045E-13
18029.283,2.5003E-13
18047.322,2.5075E-13
18065.379,2.5050E-13
18083.453,2.4870E-13
18101.545,2.4674E-13
18119.656,2.4589E-13
18137.785,2.4326E-13
18155.932,2.3556E-13
18174.098,2.2625E-13
18192.279,2.2854E-13
18210.48,2.3650E-13
18228.699,2.4023E-13
18246.938,2.4248E-13
18265.193,2.4243E-13
18283.469,2.4070E-13
18301.762,2.4045E-13
18320.072,2.3978E-13
18338.4,2.3856E-13
18356.75,2.3630E-13
18375.115,2.3419E-13
18393.498,2.3373E-13
18411.902,2.3157E-13
18430.322,2.2983E-13
18448.762,2.2985E-13
18467.221,2.2872E-13
18485.697,2.2894E-13
18504.191,2.2980E-13
18522.705,2.2902E-13
18541.236,2.2799E-13
18559.787,2.2690E-13
18578.357,2.2653E-13
18596.945,2.2617E-13
18615.551,2.2607E-13
18634.176,2.2534E-13
18652.818,2.2287E-13
18671.48,2.2025E-13
18690.16,2.1999E-13
18708.861,2.1854E-13
18727.58,2.1156E-13
18746.316,2.0067E-13
18765.072,1.9989E-13
18783.846,2.0963E-13
18802.639,2.1507E-13
18821.451,2.1582E-13
18840.281,2.1522E-13
18859.133,2.1422E-13
18878,2.1386E-13
18896.887,2.1313E-13
18915.795,2.1175E-13
18934.719,2.0997E-13
18953.664,2.0786E-13
18972.627,2.0802E-13
18991.609,2.0968E-13
19010.609,2.1017E-13
19029.631,2.0936E-13
19048.67,2.0876E-13
19067.727,2.0856E-13
19086.805,2.0791E-13
19105.9,2.0679E-13
19125.016,2.0569E-13
19144.15,2.0565E-13
19163.305,2.0511E-13
19182.477,2.0399E-13
19201.668,2.0289E-13
19220.881,2.0228E-13
19240.111,2.0169E-13
19259.359,2.0045E-13
19278.629,1.9848E-13
19297.918,1.9709E-13
19317.225,1.9629E-13
19336.553,1.9612E-13
19355.898,1.9621E-13
19375.264,1.9492E-13
19394.648,1.9216E-13
19414.053,1.8906E-13
19433.477,1.8110E-13
19452.92,1.7571E-13
19472.383,1.8133E-13
19491.865,1.8578E-13
19511.365,1.8642E-13
19530.887,1.8883E-13
19550.428,1.9025E-13
19569.988,1.8993E-13
19589.568,1.8901E-13
19609.168,1.8774E-13
19628.787,1.8633E-13
19648.426,1.8588E-13
19668.084,1.8642E-13
19687.762,1.8655E-13
19707.459,1.8480E-13
19727.176,1.8228E-13
19746.912,1.8253E-13
19766.67,1.8214E-13
19786.447,1.8042E-13
19806.242,1.8043E-13
19826.059,1.8043E-13
19845.895,1.7904E-13
19865.75,1.7811E-13
19885.627,1.7914E-13
19905.521,1.7882E-13
19925.438,1.7670E-13
19945.373,1.7587E-13
19965.328,1.7588E-13
19985.303,1.7579E-13
20005.297,1.7565E-13
20025.314,1.7472E-13
20045.35,1.7402E-13
20065.404,1.7371E-13
20085.48,1.7343E-13
20105.574,1.7297E-13
20125.691,1.7254E-13
20145.826,1.7204E-13
20165.982,1.7141E-13
20186.158,1.7061E-13
20206.355,1.6962E-13
20226.57,1.6882E-13
20246.809,1.6827E-13
20267.064,1.6768E-13
20287.342,1.6646E-13
20307.639,1.6584E-13
20327.957,1.6590E-13
20348.295,1.6527E-13
20368.654,1.6412E-13
20389.031,1.6337E-13
20409.432,1.6366E-13
20429.852,1.6348E-13
20450.291,1.6280E-13
20470.752,1.6204E-13
20491.232,1.6128E-13
20511.734,1.6060E-13
20532.256,1.6020E-13
20552.797,1.5985E-13
20573.361,1.5913E-13
20593.945,1.5794E-13
20614.549,1.5694E-13
20635.174,1.5661E-13
20655.82,1.5645E-13
20676.484,1.5566E-13
20697.172,1.5454E-13
20717.881,1.5394E-13
20738.609,1.5394E-13
20759.357,1.5402E-13
20780.127,1.5359E-13
20800.918,1.5269E-13
20821.729,1.5195E-13
20842.561,1.5139E-13
20863.414,1.5115E-13
20884.287,1.5067E-13
20905.184,1.4942E-13
20926.098,1.4816E-13
20947.033,1.4791E-13
20967.99,1.4809E-13
20988.969,1.4793E-13
21009.971,1.4736E-13
21030.988,1.4653E-13
21052.031,1.4512E-13
21073.094,1.4433E-13
21094.178,1.4457E-13
21115.283,1.4452E-13
21136.408,1.4393E-13
21157.557,1.4294E-13
21178.723,1.4221E-13
21199.912,1.4157E-13
21221.123,1.4121E-13
21242.354,1.4106E-13
21263.609,1.4075E-13
21284.883,1.4052E-13
21306.176,1.4019E-13
21327.496,1.3958E-13
21348.832,1.3841E-13
21370.191,1.3772E-13
21391.572,1.3782E-13
21412.973,1.3749E-13
21434.398,1.3664E-13
21455.842,1.3606E-13
21477.309,1.3575E-13
21498.799,1.3533E-13
21520.309,1.3486E-13
21541.838,1.3436E-13
21563.391,1.3384E-13
21584.965,1.3308E-13
21606.561,1.3168E-13
21628.18,1.2856E-13
21649.816,1.2345E-13
21671.477,1.2284E-13
21693.16,1.2700E-13
21714.863,1.2920E-13
21736.59,1.2956E-13
21758.338,1.2908E-13
21780.107,1.2824E-13
21801.896,1.2785E-13
21823.711,1.2742E-13
21845.545,1.2725E-13
21867.402,1.2664E-13
21889.279,1.2588E-13
21911.18,1.2613E-13
21933.102,1.2609E-13
21955.047,1.2565E-13
21977.012,1.2519E-13
21999,1.2472E-13
22021.012,1.2425E-13
22043.043,1.2317E-13
22065.096,1.2168E-13
22087.172,1.2162E-13
22109.27,1.2215E-13
22131.389,1.2201E-13
22153.533,1.2156E-13
22175.699,1.2119E-13
22197.883,1.2083E-13
22220.094,1.2039E-13
22242.324,1.1969E-13
22264.578,1.1896E-13
22286.854,1.1881E-13
22309.15,1.1866E-13
22331.473,1.1825E-13
22353.812,1.1763E-13
22376.18,1.1672E-13
22398.566,1.1619E-13
22420.977,1.1607E-13
22443.408,1.1581E-13
22465.861,1.1529E-13
22488.34,1.1473E-13
22510.84,1.1425E-13
22533.361,1.1355E-13
22555.906,1.1308E-13
22578.475,1.1291E-13
22601.062,1.1226E-13
22623.674,1.1114E-13
22646.311,1.1076E-13
22668.967,1.1088E-13
22691.648,1.1097E-13
22714.352,1.1065E-13
22737.078,1.1031E-13
22759.824,1.0994E-13
22782.596,1.0942E-13
22805.391,1.0854E-13
22828.207,1.0815E-13
22851.047,1.0818E-13
22873.908,1.0794E-13
22896.795,1.0746E-13
22919.703,1.0685E-13
22942.635,1.0618E-13
22965.588,1.0586E-13
22988.564,1.0574E-13
23011.564,1.0554E-13
23034.588,1.0520E-13
23057.635,1.0474E-13
23080.703,1.0438E-13
23103.797,1.0407E-13
23126.912,1.0364E-13
23150.049,1.0307E-13
23173.211,1.0270E-13
23196.396,1.0239E-13
23219.605,1.0168E-13
23242.834,1.0104E-13
23266.09,1.0089E-13
23289.367,1.0070E-13
23312.668,1.0035E-13
23335.992,9.9866E-14
23359.34,9.9341E-14
23382.711,9.8991E-14
23406.105,9.8949E-14
23429.523,9.8811E-14
23452.965,9.8493E-14
23476.428,9.8163E-14
23499.918,9.7602E-14
23523.428,9.6768E-14
23546.963,9.6221E-14
23570.523,9.5876E-14
23594.104,9.5782E-14
23617.711,9.5756E-14
23641.34,9.5517E-14
23664.992,9.5146E-14
23688.67,9.4678E-14
23712.371,9.4378E-14
23736.094,9.4191E-14
23759.842,9.3901E-14
23783.613,9.3500E-14
23807.41,9.2860E-14
23831.229,9.1744E-14
23855.07,9.0934E-14
23878.938,9.1112E-14
23902.83,9.1286E-14
23926.746,9.1068E-14
23950.684,9.0748E-14
23974.646,9.0487E-14
23998.633,9.0256E-14
24022.645,8.9994E-14
24046.678,8.9664E-14
24070.738,8.9300E-14
24094.82,8.8981E-14
24118.926,8.8545E-14
24143.057,8.7867E-14
24167.211,8.7509E-14
24191.391,8.7427E-14
24215.596,8.7216E-14
24239.822,8.6858E-14
24264.074,8.6555E-14
24288.35,8.6323E-14
24312.652,8.5995E-14
24336.975,8.5549E-14
24361.326,8.5136E-14
24385.699,8.4911E-14
24410.096,8.4781E-14
24434.52,8.4428E-14
24458.965,8.3846E-14
24483.436,8.3376E-14
24507.932,8.3106E-14
24532.451,8.2656E-14
24556.996,8.2035E-14
24581.564,8.1923E-14
24606.16,8.2030E-14
24630.779,8.1804E-14
24655.42,8.1582E-14
24680.088,8.1355E-14
24704.781,8.1001E-14
24729.496,8.0555E-14
24754.24,8.0319E-14
24779.006,7.9754E-14
24803.799,7.8745E-14
24828.613,7.8418E-14
24853.455,7.8334E-14
24878.32,7.8206E-14
24903.213,7.8372E-14
24928.127,7.8199E-14
24953.068,7.7911E-14
24978.031,7.7693E-14